# Left column = Time after Trigger in seconds & Right column = # Counts / Exposure = Flux per cm² s
700.000000 9.738740
701.000000 5.384838
702.000000 10.872497
703.000000 9.754231
704.000000 8.616188
705.000000 11.975289
706.000000 7.550233
707.000000 8.674517
708.000000 11.964155
709.000000 4.316117
710.000000 8.718429
711.000000 6.486832
712.000000 5.375991
713.000000 12.953582
714.000000 10.765303
715.000000 10.790558
716.000000 18.350558
717.000000 6.484026
718.000000 3.259148
719.000000 3.229726
720.000000 10.862504
721.000000 17.296812
722.000000 9.721105
723.000000 11.939321
724.000000 11.964143
725.000000 6.486870
726.000000 14.051009
727.000000 6.493608
728.000000 9.724765
729.000000 10.837180
730.000000 6.509452
731.000000 11.875128
732.000000 8.610380
733.000000 9.721620
734.000000 5.395840
735.000000 10.891770
736.000000 12.934506
737.000000 13.084454
738.000000 9.635718
739.000000 14.039904
740.000000 11.881110
741.000000 8.645546
742.000000 5.400763
743.000000 12.942414
744.000000 7.553359
745.000000 16.124849
746.000000 7.552464
747.000000 13.080500
748.000000 14.037709
749.000000 13.028900
750.000000 6.438782
751.000000 8.648418
752.000000 7.540470
753.000000 10.754462
754.000000 10.786933
755.000000 7.584612
756.000000 14.102389
757.000000 15.205784
758.000000 8.612506
759.000000 17.297472
760.000000 11.873292
761.000000 4.303074
762.000000 9.711269
763.000000 10.803710
764.000000 13.986723
765.000000 10.861537
766.000000 9.699130
767.000000 8.671671
768.000000 9.768979
769.000000 10.750377
770.000000 14.033286
771.000000 10.792069
772.000000 10.888346
773.000000 10.771137
774.000000 12.925736
775.000000 14.049580
776.000000 15.256129
777.000000 4.326885
778.000000 8.692645
779.000000 14.045204
780.000000 11.929195
781.000000 8.630742
782.000000 13.964243
783.000000 9.735515
784.000000 8.619425
785.000000 10.756868
786.000000 12.958247
787.000000 8.585676
788.000000 4.318560
789.000000 9.746459
790.000000 7.584231
791.000000 7.552763
792.000000 5.408644
793.000000 6.506325
794.000000 7.599781
795.000000 10.769453
796.000000 9.699305
797.000000 7.633613
798.000000 10.781548
799.000000 7.568975
800.000000 9.791591
801.000000 3.240220
802.000000 11.839946
803.000000 10.813407
804.000000 11.877611
805.000000 9.727949
806.000000 9.692133
807.000000 14.024750
808.000000 5.413901
809.000000 11.907603
810.000000 5.396628
811.000000 11.856414
812.000000 7.593566
813.000000 8.663024
814.000000 6.499016
815.000000 14.007267
816.000000 7.601249
817.000000 8.621128
818.000000 6.458457
819.000000 14.075728
820.000000 13.032699
821.000000 13.070323
822.000000 10.804415
823.000000 8.666405
824.000000 11.854569
825.000000 21.684659
826.000000 8.635788
827.000000 10.831974
828.000000 8.641635
829.000000 12.985951
830.000000 6.504262
831.000000 8.634627
832.000000 16.168026
833.000000 15.154475
834.000000 10.815887
835.000000 12.980737
836.000000 10.764027
837.000000 10.839121
838.000000 11.950517
839.000000 10.835470
840.000000 9.747875
841.000000 7.573353
842.000000 11.950204
843.000000 11.865176
844.000000 12.991250
845.000000 4.336774
846.000000 18.328856
847.000000 8.628602
848.000000 15.147766
849.000000 9.683068
850.000000 15.089597
851.000000 10.794305
852.000000 9.714042
853.000000 7.562369
854.000000 14.064846
855.000000 10.734312
856.000000 11.878871
857.000000 15.199112
858.000000 11.866315
859.000000 7.511886
860.000000 14.034803
861.000000 5.402859
862.000000 6.518548
863.000000 14.166050
864.000000 9.749368
865.000000 6.481646
866.000000 12.984977
867.000000 10.789639
868.000000 7.584562
869.000000 11.848439
870.000000 8.637962
871.000000 14.028376
872.000000 7.592571
873.000000 8.675905
874.000000 5.391891
875.000000 6.514152
876.000000 9.703749
877.000000 9.658141
878.000000 7.518608
879.000000 7.547715
880.000000 10.788411
881.000000 6.503281
882.000000 8.687273
883.000000 11.909655
884.000000 11.906980
885.000000 7.571107
886.000000 8.726891
887.000000 18.610999
888.000000 4.299557
889.000000 12.952587
890.000000 5.415484
891.000000 5.383964
892.000000 7.502015
893.000000 7.585753
894.000000 10.799835
895.000000 14.035592
896.000000 8.613791
897.000000 8.666264
898.000000 8.636470
899.000000 15.151258
900.000000 12.010560
901.000000 10.849088
902.000000 8.633718
903.000000 13.018021
904.000000 8.676237
905.000000 7.625924
906.000000 15.102960
907.000000 9.761223
908.000000 8.584201
909.000000 6.477235
910.000000 6.501303
911.000000 12.983188
912.000000 6.446159
913.000000 19.485856
914.000000 9.759517
915.000000 14.016548
916.000000 9.689808
917.000000 9.742401
918.000000 8.660432
919.000000 14.063302
920.000000 7.538300
921.000000 9.698870
922.000000 8.617136
923.000000 10.839320
924.000000 8.599304
925.000000 7.543999
926.000000 9.743716
927.000000 8.619900
928.000000 13.004667
929.000000 9.768699
930.000000 5.429405
931.000000 7.567039
932.000000 2.160605
933.000000 7.549722
934.000000 7.573928
935.000000 8.645540
936.000000 14.001186
937.000000 7.573558
938.000000 5.437511
939.000000 12.936604
940.000000 10.807554
941.000000 7.558296
942.000000 5.410471
943.000000 7.592252
944.000000 13.018622
945.000000 10.783203
946.000000 5.435725
947.000000 10.819852
948.000000 16.279464
949.000000 12.957361
950.000000 11.856879
951.000000 14.072316
952.000000 10.747191
953.000000 16.221624
954.000000 6.479590
955.000000 12.985316
956.000000 6.472283
957.000000 6.484761
958.000000 8.678122
959.000000 13.987795
960.000000 15.211226
961.000000 6.516660
962.000000 10.796902
963.000000 8.604606
964.000000 10.738973
965.000000 9.690217
966.000000 7.604268
967.000000 10.769261
968.000000 13.076208
969.000000 9.717272
970.000000 14.024891
971.000000 17.315768
972.000000 9.781724
973.000000 9.783408
974.000000 10.748626
975.000000 8.634931
976.000000 11.852196
977.000000 7.507251
978.000000 10.769911
979.000000 14.007013
980.000000 17.283891
981.000000 14.043985
982.000000 10.798084
983.000000 6.468345
984.000000 8.683354
985.000000 14.116619
986.000000 16.218819
987.000000 7.580944
988.000000 14.077863
989.000000 7.526057
990.000000 14.029458
991.000000 11.859163
992.000000 9.706763
993.000000 8.686198
994.000000 7.537933
995.000000 9.694450
996.000000 10.829582
997.000000 10.857011
998.000000 10.870570
999.000000 6.477410
1000.000000 20.583095
1001.000000 10.786285
1002.000000 18.280811
1003.000000 26.004171
1004.000000 20.664969
1005.000000 18.299129
1006.000000 46.290118
1007.000000 49.350069
1008.000000 30.177039
1009.000000 39.955368
1010.000000 23.847400
1011.000000 21.559040
1012.000000 16.172443
1013.000000 19.434933
1014.000000 18.278986
1015.000000 14.096132
1016.000000 14.050361
1017.000000 8.699659
1018.000000 13.001805
1019.000000 6.498064
1020.000000 10.797667
1021.000000 17.263872
1022.000000 7.597704
1023.000000 16.135565
1024.000000 8.693100
1025.000000 15.179076
1026.000000 17.301151
1027.000000 8.619295
1028.000000 14.070419
1029.000000 10.782243
1030.000000 9.734308
1031.000000 12.990151
1032.000000 9.737594
1033.000000 8.601995
1034.000000 13.038116
1035.000000 11.919697
1036.000000 8.634525
1037.000000 5.413271
1038.000000 9.717913
1039.000000 6.465239
1040.000000 5.384747
1041.000000 10.756956
1042.000000 7.504362
1043.000000 7.582838
1044.000000 10.852548
1045.000000 9.768729
1046.000000 12.945364
1047.000000 9.738524
1048.000000 7.554309
1049.000000 12.938271
1050.000000 9.730395
1051.000000 6.535918
1052.000000 15.124745
1053.000000 11.877892
1054.000000 6.489797
1055.000000 17.193711
1056.000000 11.849019
1057.000000 8.597087
1058.000000 13.002500
1059.000000 6.480537
1060.000000 7.591469
1061.000000 4.315052
1062.000000 11.888503
1063.000000 10.771374
1064.000000 9.680616
1065.000000 8.666768
1066.000000 9.667129
1067.000000 10.809076
1068.000000 10.822082
1069.000000 18.357030
1070.000000 10.737065
1071.000000 7.592430
1072.000000 9.725714
1073.000000 9.739507
1074.000000 7.514760
1075.000000 9.724520
1076.000000 15.115613
1077.000000 8.583688
1078.000000 9.705325
1079.000000 12.947167
1080.000000 11.871825
1081.000000 14.009613
1082.000000 10.781216
1083.000000 14.050116
1084.000000 11.819398
1085.000000 8.638698
1086.000000 10.795014
1087.000000 7.552177
1088.000000 14.054981
1089.000000 11.831547
1090.000000 11.917697
1091.000000 8.647324
1092.000000 9.753033
1093.000000 11.890887
1094.000000 9.789083
1095.000000 10.770357
1096.000000 10.780520
1097.000000 11.899108
1098.000000 12.991149
1099.000000 18.346053
1100.000000 9.734523
1101.000000 12.976386
1102.000000 7.600542
1103.000000 10.816871
1104.000000 10.817216
1105.000000 16.213465
1106.000000 10.742686
1107.000000 10.829825
1108.000000 8.615986
1109.000000 10.752481
1110.000000 9.777702
1111.000000 11.882931
1112.000000 14.071189
1113.000000 4.333531
1114.000000 6.472965
1115.000000 16.186482
1116.000000 14.038780
1117.000000 6.501324
1118.000000 14.077523
1119.000000 11.892439
1120.000000 17.340470
1121.000000 12.916740
1122.000000 11.958632
1123.000000 10.810588
1124.000000 13.904253
1125.000000 12.979621
1126.000000 6.485954
1127.000000 8.619835
1128.000000 12.977048
1129.000000 8.579305
1130.000000 10.811910
1131.000000 8.695042
1132.000000 11.904586
1133.000000 11.938286
1134.000000 14.121211
1135.000000 12.899481
1136.000000 15.119006
1137.000000 7.557688
1138.000000 7.533324
1139.000000 11.903826
1140.000000 15.090154
1141.000000 11.943207
1142.000000 10.781927
1143.000000 10.848489
1144.000000 8.652328
1145.000000 8.549890
1146.000000 13.026627
1147.000000 12.886621
1148.000000 6.478763
1149.000000 7.593871
1150.000000 8.684907
1151.000000 9.736892
1152.000000 8.658864
1153.000000 12.910334
1154.000000 11.973720
1155.000000 9.730915
1156.000000 7.563060
1157.000000 16.093739
1158.000000 8.604809
1159.000000 10.791785
1160.000000 6.501163
1161.000000 17.342804
1162.000000 15.098797
1163.000000 6.472572
1164.000000 16.218102
1165.000000 9.779434
1166.000000 6.463523
1167.000000 10.761224
1168.000000 8.698250
1169.000000 14.079471
1170.000000 8.641300
1171.000000 9.748278
1172.000000 7.562249
1173.000000 9.763534
1174.000000 12.970793
1175.000000 10.755485
1176.000000 13.031801
1177.000000 11.921777
1178.000000 5.437006
1179.000000 10.825913
1180.000000 14.049439
1181.000000 11.857118
1182.000000 18.372872
1183.000000 5.403451
1184.000000 5.416011
1185.000000 11.917916
1186.000000 10.813026
1187.000000 9.823764
1188.000000 14.090707
1189.000000 8.621985
1190.000000 8.614638
1191.000000 11.885366
1192.000000 6.502904
1193.000000 10.854370
1194.000000 16.231574
1195.000000 10.741487
1196.000000 6.524193
1197.000000 6.505509
1198.000000 9.761811
1199.000000 11.917650
1200.000000 8.660141
1201.000000 10.832891
1202.000000 19.446511
1203.000000 6.450357
1204.000000 9.764415
1205.000000 17.330646
1206.000000 6.482322
1207.000000 7.540999
1208.000000 10.839351
1209.000000 15.236393
1210.000000 8.674503
1211.000000 20.582335
1212.000000 9.779277
1213.000000 16.115091
1214.000000 14.071052
1215.000000 8.630072
1216.000000 5.443834
1217.000000 7.612546
1218.000000 11.895897
1219.000000 7.568353
1220.000000 7.549187
1221.000000 7.587506
1222.000000 8.652665
1223.000000 14.184240
1224.000000 6.488339
1225.000000 8.672606
1226.000000 8.667770
1227.000000 6.447345
1228.000000 9.751327
1229.000000 3.255441
1230.000000 10.817984
1231.000000 10.817644
1232.000000 10.814420
1233.000000 9.738094
1234.000000 11.987819
1235.000000 9.702530
1236.000000 8.590670
1237.000000 4.326241
1238.000000 17.293346
1239.000000 10.915113
1240.000000 12.968601
1241.000000 3.215599
1242.000000 16.321250
1243.000000 11.894272
1244.000000 9.784595
1245.000000 14.087716
1246.000000 17.352654
1247.000000 11.894411
1248.000000 11.926167
1249.000000 4.358230
1250.000000 2.176024
1251.000000 2.158903
1252.000000 8.674489
1253.000000 6.499439
1254.000000 14.151831
1255.000000 15.054090
1256.000000 6.469590
1257.000000 10.860250
1258.000000 9.743605
1259.000000 8.683893
1260.000000 7.562440
1261.000000 8.636579
1262.000000 14.081360
1263.000000 9.687424
1264.000000 7.593080
1265.000000 17.284607
1266.000000 14.041622
1267.000000 9.787482
1268.000000 11.908009
1269.000000 11.956573
1270.000000 8.655846
1271.000000 12.897921
1272.000000 12.917960
1273.000000 14.055336
1274.000000 7.603824
1275.000000 16.307032
1276.000000 10.830040
1277.000000 11.863151
1278.000000 9.715845
1279.000000 12.982698
1280.000000 14.071022
1281.000000 11.837996
1282.000000 8.660327
1283.000000 8.630244
1284.000000 6.537964
1285.000000 13.073737
1286.000000 7.599156
1287.000000 11.870419
1288.000000 2.161134
1289.000000 19.582522
1290.000000 10.902678
1291.000000 10.839907
1292.000000 8.668702
1293.000000 12.999199
1294.000000 5.437830
1295.000000 11.856906
1296.000000 15.088104
1297.000000 5.425480
1298.000000 13.017578
1299.000000 9.805825
