# Left column = Time after Trigger in seconds & Right column = # Counts / Exposure = Flux per cm² s
700.000000 10.978097
701.000000 8.723574
702.000000 8.725783
703.000000 8.713147
704.000000 7.625394
705.000000 14.119487
706.000000 9.798187
707.000000 9.814056
708.000000 6.576517
709.000000 9.773762
710.000000 18.596228
711.000000 8.693085
712.000000 9.818659
713.000000 6.538532
714.000000 5.471666
715.000000 6.525939
716.000000 4.363047
717.000000 6.523100
718.000000 8.629203
719.000000 7.633387
720.000000 9.773620
721.000000 5.435286
722.000000 5.406972
723.000000 9.796603
724.000000 7.612645
725.000000 8.710487
726.000000 6.514427
727.000000 6.536033
728.000000 8.709011
729.000000 8.771195
730.000000 6.530647
731.000000 6.526606
732.000000 15.300779
733.000000 9.736634
734.000000 7.603498
735.000000 13.069568
736.000000 15.264854
737.000000 9.803957
738.000000 7.633473
739.000000 7.601309
740.000000 9.825131
741.000000 4.365287
742.000000 13.154584
743.000000 5.451387
744.000000 7.614501
745.000000 17.376033
746.000000 2.170196
747.000000 13.044919
748.000000 6.551196
749.000000 7.639223
750.000000 8.754545
751.000000 7.612867
752.000000 7.616563
753.000000 12.050755
754.000000 6.586740
755.000000 5.489741
756.000000 7.646479
757.000000 9.759548
758.000000 6.519037
759.000000 8.642862
760.000000 5.443731
761.000000 6.550317
762.000000 5.403551
763.000000 13.121028
764.000000 6.537693
765.000000 8.675431
766.000000 7.619788
767.000000 14.163669
768.000000 13.080910
769.000000 8.758654
770.000000 7.639079
771.000000 10.951317
772.000000 14.295991
773.000000 5.486237
774.000000 4.356260
775.000000 6.543290
776.000000 5.412500
777.000000 8.747947
778.000000 9.838030
779.000000 8.755042
780.000000 8.726226
781.000000 10.918478
782.000000 10.928278
783.000000 3.265727
784.000000 6.513807
785.000000 10.835706
786.000000 8.657178
787.000000 4.370152
788.000000 12.069929
789.000000 10.918172
790.000000 7.675881
791.000000 8.675284
792.000000 12.075003
793.000000 9.805077
794.000000 5.469392
795.000000 13.245877
796.000000 13.045539
797.000000 9.862039
798.000000 11.971204
799.000000 7.677569
800.000000 10.865941
801.000000 4.377852
802.000000 14.093443
803.000000 5.430493
804.000000 7.662231
805.000000 9.812496
806.000000 4.347084
807.000000 10.900249
808.000000 16.323813
809.000000 9.701518
810.000000 9.816992
811.000000 8.743026
812.000000 9.733400
813.000000 4.359754
814.000000 9.818089
815.000000 10.925093
816.000000 7.570489
817.000000 8.727994
818.000000 8.727169
819.000000 7.625888
820.000000 10.882425
821.000000 8.746426
822.000000 9.772266
823.000000 9.822931
824.000000 8.678733
825.000000 9.764350
826.000000 8.740147
827.000000 4.333046
828.000000 10.922807
829.000000 10.920511
830.000000 14.188244
831.000000 7.640158
832.000000 7.633653
833.000000 12.047824
834.000000 13.146183
835.000000 1.087252
836.000000 8.731115
837.000000 13.063446
838.000000 8.757062
839.000000 6.569570
840.000000 6.540744
841.000000 12.001855
842.000000 12.001209
843.000000 5.404556
844.000000 4.350039
845.000000 7.679684
846.000000 9.775156
847.000000 4.392347
848.000000 7.652331
849.000000 6.581257
850.000000 14.158732
851.000000 7.646871
852.000000 9.795136
853.000000 9.835934
854.000000 7.654119
855.000000 10.885764
856.000000 14.145101
857.000000 9.878491
858.000000 4.393968
859.000000 3.292329
860.000000 6.565179
861.000000 6.491421
862.000000 9.814594
863.000000 2.183528
864.000000 8.691053
865.000000 10.815495
866.000000 8.661119
867.000000 14.207952
868.000000 10.881984
869.000000 7.619853
870.000000 7.673619
871.000000 4.350237
872.000000 14.152325
873.000000 8.732360
874.000000 7.647418
875.000000 8.681989
876.000000 10.963488
877.000000 7.649868
878.000000 12.012993
879.000000 9.821533
880.000000 1.096980
881.000000 8.734726
882.000000 12.007622
883.000000 5.480836
884.000000 12.014728
885.000000 7.611020
886.000000 6.521320
887.000000 7.635582
888.000000 3.266716
889.000000 6.632888
890.000000 5.445412
891.000000 5.462341
892.000000 9.800617
893.000000 8.744364
894.000000 7.617526
895.000000 8.700773
896.000000 6.535568
897.000000 6.585579
898.000000 11.929936
899.000000 6.497232
900.000000 3.266138
901.000000 6.549345
902.000000 11.915272
903.000000 9.747236
904.000000 13.112531
905.000000 5.426742
906.000000 9.748149
907.000000 9.836326
908.000000 13.050574
909.000000 3.264166
910.000000 9.801184
911.000000 5.469450
912.000000 8.700923
913.000000 7.634621
914.000000 9.895612
915.000000 3.296180
916.000000 6.532009
917.000000 6.512448
918.000000 10.897407
919.000000 6.518576
920.000000 7.636325
921.000000 5.463219
922.000000 10.901425
923.000000 11.962377
924.000000 10.835823
925.000000 10.873490
926.000000 10.856230
927.000000 7.649518
928.000000 7.635624
929.000000 6.534575
930.000000 8.716018
931.000000 8.708708
932.000000 5.459457
933.000000 10.934347
934.000000 13.102742
935.000000 10.952100
936.000000 4.359620
937.000000 7.619885
938.000000 9.870616
939.000000 5.417480
940.000000 9.790379
941.000000 7.626769
942.000000 9.858197
943.000000 8.789297
944.000000 8.743468
945.000000 13.055218
946.000000 7.659734
947.000000 5.434850
948.000000 11.942288
949.000000 10.905130
950.000000 9.791956
951.000000 5.450267
952.000000 7.644558
953.000000 8.780651
954.000000 10.890278
955.000000 11.988792
956.000000 12.020555
957.000000 9.744003
958.000000 10.877304
959.000000 7.691617
960.000000 13.121386
961.000000 14.287060
962.000000 8.740600
963.000000 8.718286
964.000000 9.767831
965.000000 13.044578
966.000000 8.711021
967.000000 6.549589
968.000000 12.011124
969.000000 15.362691
970.000000 4.331056
971.000000 15.285891
972.000000 11.912730
973.000000 10.867858
974.000000 8.667181
975.000000 8.699489
976.000000 6.539394
977.000000 8.741005
978.000000 9.802898
979.000000 6.592866
980.000000 8.720718
981.000000 7.660010
982.000000 15.263227
983.000000 9.804404
984.000000 17.418262
985.000000 10.929255
986.000000 5.440420
987.000000 8.709535
988.000000 8.736426
989.000000 6.571364
990.000000 15.222613
991.000000 4.375460
992.000000 13.085320
993.000000 14.179725
994.000000 12.017828
995.000000 8.748229
996.000000 15.175882
997.000000 10.919831
998.000000 5.471019
999.000000 14.173706
1000.000000 20.729701
1001.000000 13.040173
1002.000000 14.129374
1003.000000 19.624013
1004.000000 17.477342
1005.000000 40.689530
1006.000000 60.750456
1007.000000 42.603368
1008.000000 65.917864
1009.000000 74.299829
1010.000000 63.682237
1011.000000 132.185525
1012.000000 77.461495
1013.000000 65.463245
1014.000000 98.370196
1015.000000 133.982167
1016.000000 175.336092
1017.000000 190.087455
1018.000000 125.491630
1019.000000 106.111549
1020.000000 73.616930
1021.000000 62.296448
1022.000000 68.721078
1023.000000 56.971682
1024.000000 46.021218
1025.000000 36.062660
1026.000000 62.179302
1027.000000 46.990362
1028.000000 46.067884
1029.000000 29.499994
1030.000000 20.730095
1031.000000 27.246064
1032.000000 25.216759
1033.000000 27.193851
1034.000000 22.797735
1035.000000 22.901669
1036.000000 11.944923
1037.000000 15.249243
1038.000000 17.532465
1039.000000 22.917581
1040.000000 17.434591
1041.000000 20.842670
1042.000000 26.157764
1043.000000 19.510271
1044.000000 26.158940
1045.000000 17.433206
1046.000000 16.455087
1047.000000 16.386075
1048.000000 14.194004
1049.000000 18.563757
1050.000000 14.334079
1051.000000 16.365914
1052.000000 18.502875
1053.000000 16.412928
1054.000000 13.006328
1055.000000 14.194843
1056.000000 21.730466
1057.000000 19.747014
1058.000000 22.769104
1059.000000 17.440517
1060.000000 44.952674
1061.000000 30.557566
1062.000000 132.656974
1063.000000 82.042797
1064.000000 40.618488
1065.000000 30.573365
1066.000000 33.843079
1067.000000 34.926361
1068.000000 24.153090
1069.000000 30.550531
1070.000000 25.039144
1071.000000 32.685968
1072.000000 31.616025
1073.000000 31.633940
1074.000000 28.348784
1075.000000 61.168263
1076.000000 26.202442
1077.000000 24.130000
1078.000000 41.334163
1079.000000 21.966488
1080.000000 27.328280
1081.000000 27.233312
1082.000000 24.087542
1083.000000 17.517403
1084.000000 20.772263
1085.000000 17.387958
1086.000000 28.479611
1087.000000 20.617261
1088.000000 25.130990
1089.000000 18.612460
1090.000000 20.736000
1091.000000 17.394217
1092.000000 17.538875
1093.000000 13.047649
1094.000000 14.154084
1095.000000 20.749087
1096.000000 20.855570
1097.000000 13.097763
1098.000000 23.012783
1099.000000 15.272690
1100.000000 20.855371
1101.000000 16.346908
1102.000000 17.376822
1103.000000 14.186033
1104.000000 21.678150
1105.000000 13.126658
1106.000000 13.005934
1107.000000 16.400918
1108.000000 14.220085
1109.000000 15.203636
1110.000000 5.470858
1111.000000 8.722044
1112.000000 16.228089
1113.000000 18.621559
1114.000000 14.157153
1115.000000 18.386361
1116.000000 11.948379
1117.000000 16.413244
1118.000000 16.406632
1119.000000 9.785512
1120.000000 16.312130
1121.000000 12.056769
1122.000000 14.094131
1123.000000 10.859260
1124.000000 13.113271
1125.000000 12.006448
1126.000000 11.975585
1127.000000 9.811451
1128.000000 12.984143
1129.000000 17.300053
1130.000000 7.693980
1131.000000 12.059947
1132.000000 11.987827
1133.000000 10.954116
1134.000000 13.042347
1135.000000 9.791646
1136.000000 6.502486
1137.000000 15.346114
1138.000000 9.810928
1139.000000 11.888166
1140.000000 14.117440
1141.000000 14.063707
1142.000000 10.883754
1143.000000 15.282070
1144.000000 10.911234
1145.000000 14.182205
1146.000000 9.787024
1147.000000 17.365981
1148.000000 9.809842
1149.000000 9.761932
1150.000000 8.724830
1151.000000 16.281504
1152.000000 9.801742
1153.000000 15.276343
1154.000000 13.077056
1155.000000 15.180335
1156.000000 10.910198
1157.000000 4.342463
1158.000000 8.670459
1159.000000 14.065242
1160.000000 9.757674
1161.000000 7.630531
1162.000000 6.517378
1163.000000 7.624245
1164.000000 13.025281
1165.000000 10.860304
1166.000000 10.865019
1167.000000 14.137530
1168.000000 14.106196
1169.000000 9.809985
1170.000000 13.060969
1171.000000 8.805245
1172.000000 7.593954
1173.000000 14.174771
1174.000000 14.306531
1175.000000 6.521653
1176.000000 9.806023
1177.000000 14.160826
1178.000000 10.874934
1179.000000 18.692189
1180.000000 6.537270
1181.000000 11.968061
1182.000000 6.548019
1183.000000 14.113592
1184.000000 13.066932
1185.000000 6.521099
1186.000000 13.094076
1187.000000 14.150495
1188.000000 10.904294
1189.000000 11.899598
1190.000000 14.054677
1191.000000 12.035834
1192.000000 10.855738
1193.000000 19.682875
1194.000000 13.081555
1195.000000 7.658114
1196.000000 13.083591
1197.000000 13.112687
1198.000000 11.018877
1199.000000 18.523460
1200.000000 6.502831
1201.000000 13.043601
1202.000000 11.950135
1203.000000 5.390814
1204.000000 9.745812
1205.000000 11.900351
1206.000000 13.070995
1207.000000 9.853029
1208.000000 5.477512
1209.000000 9.827278
1210.000000 14.152954
1211.000000 14.157669
1212.000000 9.830611
1213.000000 5.457848
1214.000000 10.868355
1215.000000 4.359999
1216.000000 14.260377
1217.000000 9.873979
1218.000000 7.640299
1219.000000 8.741192
1220.000000 14.263863
1221.000000 14.142077
1222.000000 6.516806
1223.000000 15.241292
1224.000000 13.021868
1225.000000 7.555791
1226.000000 9.895068
1227.000000 10.910579
1228.000000 7.688433
1229.000000 7.632367
1230.000000 8.765440
1231.000000 8.741118
1232.000000 14.121602
1233.000000 14.326757
1234.000000 7.579846
1235.000000 15.289698
1236.000000 19.491235
1237.000000 10.841741
1238.000000 10.952280
1239.000000 6.532929
1240.000000 6.547465
1241.000000 10.835898
1242.000000 6.564336
1243.000000 9.877994
1244.000000 6.508677
1245.000000 7.606886
1246.000000 14.087919
1247.000000 13.050040
1248.000000 5.409063
1249.000000 14.118802
1250.000000 9.842025
1251.000000 5.417496
1252.000000 11.940619
1253.000000 9.797400
1254.000000 14.161886
1255.000000 8.636763
1256.000000 14.200200
1257.000000 10.834674
1258.000000 6.536721
1259.000000 14.098661
1260.000000 15.221852
1261.000000 10.910080
1262.000000 6.510373
1263.000000 10.844354
1264.000000 15.185123
1265.000000 7.590391
1266.000000 6.548968
1267.000000 15.199263
1268.000000 3.249686
1269.000000 8.745879
1270.000000 6.569042
1271.000000 13.113728
1272.000000 7.665132
1273.000000 15.261642
1274.000000 6.551719
1275.000000 7.612901
1276.000000 8.767263
1277.000000 6.529582
1278.000000 8.664683
1279.000000 7.617995
1280.000000 18.501073
1281.000000 6.539202
1282.000000 13.067261
1283.000000 15.230291
1284.000000 11.960359
1285.000000 10.876483
1286.000000 16.318857
1287.000000 17.401109
1288.000000 8.767143
1289.000000 14.150517
1290.000000 11.947028
1291.000000 7.661787
1292.000000 9.839445
1293.000000 9.812115
1294.000000 15.265207
1295.000000 10.919976
1296.000000 9.747156
1297.000000 11.962634
1298.000000 7.616145
1299.000000 3.249270
