# Left column = Time after Trigger in seconds & Right column = # Counts / Exposure = Flux per cm² s
700.000000 8.906746
701.000000 7.735206
702.000000 8.908720
703.000000 9.956197
704.000000 5.526121
705.000000 8.858953
706.000000 11.095785
707.000000 4.415981
708.000000 10.002972
709.000000 7.758758
710.000000 5.561080
711.000000 8.798224
712.000000 8.942992
713.000000 8.830042
714.000000 6.612978
715.000000 4.407890
716.000000 9.997465
717.000000 9.998782
718.000000 9.890464
719.000000 12.167793
720.000000 6.656495
721.000000 12.198405
722.000000 9.950052
723.000000 7.829353
724.000000 7.706327
725.000000 8.863197
726.000000 9.977562
727.000000 7.761450
728.000000 5.560443
729.000000 8.812424
730.000000 8.870930
731.000000 5.532841
732.000000 5.527522
733.000000 14.511483
734.000000 5.487819
735.000000 5.546023
736.000000 11.088110
737.000000 11.031380
738.000000 6.639592
739.000000 12.228411
740.000000 6.663006
741.000000 6.625671
742.000000 6.706826
743.000000 8.809678
744.000000 11.057006
745.000000 8.887965
746.000000 7.755509
747.000000 4.409550
748.000000 5.532071
749.000000 12.129773
750.000000 8.831351
751.000000 5.493638
752.000000 7.743434
753.000000 14.454040
754.000000 13.210431
755.000000 14.321507
756.000000 4.404411
757.000000 13.306270
758.000000 5.523629
759.000000 9.912570
760.000000 7.670938
761.000000 1.099240
762.000000 6.640466
763.000000 9.929054
764.000000 8.799461
765.000000 6.579704
766.000000 6.618423
767.000000 5.536010
768.000000 6.587902
769.000000 4.413936
770.000000 6.609189
771.000000 2.204011
772.000000 8.749478
773.000000 7.681314
774.000000 3.308017
775.000000 4.374960
776.000000 9.858219
777.000000 9.893158
778.000000 13.359866
779.000000 8.782647
780.000000 6.609781
781.000000 5.484037
782.000000 7.701463
783.000000 5.518777
784.000000 8.807753
785.000000 13.226245
786.000000 8.794138
787.000000 3.294207
788.000000 15.380336
789.000000 8.806234
790.000000 8.815785
791.000000 6.544719
792.000000 8.834885
793.000000 5.489770
794.000000 7.717149
795.000000 9.944220
796.000000 14.235462
797.000000 9.936389
798.000000 9.915909
799.000000 11.042599
800.000000 6.645325
801.000000 9.889122
802.000000 9.886110
803.000000 6.588584
804.000000 13.256479
805.000000 6.542869
806.000000 4.368146
807.000000 10.939344
808.000000 12.144297
809.000000 10.976204
810.000000 9.874322
811.000000 4.357446
812.000000 10.954338
813.000000 5.495733
814.000000 6.539091
815.000000 5.450766
816.000000 11.967199
817.000000 7.676973
818.000000 4.394027
819.000000 6.547469
820.000000 9.898137
821.000000 7.636268
822.000000 6.596679
823.000000 9.912358
824.000000 7.677573
825.000000 9.857783
826.000000 10.938612
827.000000 6.590270
828.000000 7.647694
829.000000 7.680691
830.000000 7.689845
831.000000 11.004839
832.000000 7.637428
833.000000 5.480813
834.000000 7.607887
835.000000 8.837470
836.000000 5.515100
837.000000 5.497437
838.000000 5.458993
839.000000 6.661895
840.000000 6.580699
841.000000 7.640563
842.000000 10.937332
843.000000 6.566109
844.000000 9.846250
845.000000 5.437445
846.000000 7.675316
847.000000 6.573772
848.000000 8.784852
849.000000 7.702000
850.000000 5.443944
851.000000 10.862820
852.000000 7.637485
853.000000 6.595369
854.000000 8.794558
855.000000 9.844194
856.000000 4.361846
857.000000 4.353236
858.000000 8.729163
859.000000 4.377011
860.000000 7.673389
861.000000 3.277843
862.000000 4.387461
863.000000 9.876723
864.000000 8.729146
865.000000 5.466486
866.000000 9.875308
867.000000 10.923908
868.000000 7.646033
869.000000 9.778681
870.000000 7.687336
871.000000 5.450537
872.000000 5.495501
873.000000 14.207541
874.000000 7.683411
875.000000 7.681727
876.000000 13.137002
877.000000 13.130672
878.000000 9.810364
879.000000 14.180611
880.000000 8.753441
881.000000 9.834682
882.000000 6.568770
883.000000 9.800178
884.000000 14.131291
885.000000 12.012869
886.000000 12.028040
887.000000 5.430729
888.000000 4.396127
889.000000 11.970563
890.000000 6.519785
891.000000 7.582607
892.000000 14.215591
893.000000 13.066508
894.000000 6.506153
895.000000 8.728611
896.000000 6.546547
897.000000 0.000000
898.000000 11.956889
899.000000 20.689706
900.000000 3.262689
901.000000 9.797117
902.000000 10.907313
903.000000 9.852282
904.000000 5.442847
905.000000 8.739798
906.000000 5.420254
907.000000 6.541017
908.000000 8.649669
909.000000 8.743942
910.000000 7.596955
911.000000 13.066061
912.000000 7.605917
913.000000 11.992722
914.000000 4.345595
915.000000 10.932183
916.000000 2.200935
917.000000 9.853308
918.000000 9.773171
919.000000 10.939547
920.000000 5.466508
921.000000 3.244053
922.000000 8.671800
923.000000 6.570931
924.000000 4.361677
925.000000 6.558729
926.000000 7.620023
927.000000 13.088503
928.000000 5.436316
929.000000 7.589567
930.000000 10.859664
931.000000 10.868417
932.000000 10.944432
933.000000 8.689369
934.000000 9.750802
935.000000 7.601190
936.000000 9.815606
937.000000 7.633922
938.000000 6.534274
939.000000 7.615207
940.000000 9.808259
941.000000 7.611493
942.000000 10.936826
943.000000 8.643493
944.000000 3.251372
945.000000 9.733053
946.000000 8.644642
947.000000 5.440614
948.000000 8.737244
949.000000 11.910591
950.000000 9.803283
951.000000 10.923081
952.000000 4.340217
953.000000 13.092784
954.000000 10.888134
955.000000 10.800281
956.000000 7.620164
957.000000 5.408095
958.000000 7.604394
959.000000 6.501877
960.000000 8.681166
961.000000 4.347903
962.000000 11.988890
963.000000 10.975221
964.000000 10.898814
965.000000 5.411307
966.000000 10.906983
967.000000 12.979869
968.000000 10.816403
969.000000 7.598634
970.000000 6.524103
971.000000 6.469729
972.000000 7.598725
973.000000 9.692466
974.000000 9.687753
975.000000 6.501645
976.000000 7.565987
977.000000 8.676113
978.000000 5.427289
979.000000 8.715131
980.000000 4.320094
981.000000 16.328994
982.000000 4.335297
983.000000 8.668758
984.000000 7.600576
985.000000 9.717375
986.000000 8.668371
987.000000 9.721174
988.000000 11.843629
989.000000 10.817789
990.000000 8.741218
991.000000 5.424143
992.000000 8.695059
993.000000 11.896102
994.000000 7.631082
995.000000 10.819157
996.000000 8.632341
997.000000 5.390868
998.000000 8.645652
999.000000 8.663301
1000.000000 12.921302
1001.000000 8.667823
1002.000000 17.451376
1003.000000 35.875201
1004.000000 36.858299
1005.000000 33.404952
1006.000000 21.583017
1007.000000 26.077549
1008.000000 21.634557
1009.000000 21.794417
1010.000000 17.326714
1011.000000 21.770942
1012.000000 17.310979
1013.000000 9.768621
1014.000000 15.276542
1015.000000 15.163511
1016.000000 14.106246
1017.000000 15.058809
1018.000000 17.411624
1019.000000 8.669132
1020.000000 6.414799
1021.000000 7.632657
1022.000000 9.735313
1023.000000 13.032032
1024.000000 11.964497
1025.000000 12.921044
1026.000000 9.761414
1027.000000 5.416080
1028.000000 14.014650
1029.000000 8.642071
1030.000000 10.829390
1031.000000 7.641253
1032.000000 5.398702
1033.000000 10.755762
1034.000000 9.804337
1035.000000 7.590136
1036.000000 7.563695
1037.000000 11.895830
1038.000000 9.705812
1039.000000 14.003478
1040.000000 9.725815
1041.000000 9.729177
1042.000000 10.796792
1043.000000 6.475828
1044.000000 14.007425
1045.000000 8.671937
1046.000000 11.979473
1047.000000 4.317717
1048.000000 8.654857
1049.000000 4.318643
1050.000000 11.920059
1051.000000 7.564227
1052.000000 7.576579
1053.000000 10.776174
1054.000000 11.862731
1055.000000 9.664352
1056.000000 8.632293
1057.000000 8.620517
1058.000000 7.534520
1059.000000 8.682334
1060.000000 9.758165
1061.000000 4.327093
1062.000000 4.309432
1063.000000 10.790165
1064.000000 10.820451
1065.000000 13.033181
1066.000000 9.773065
1067.000000 13.036752
1068.000000 8.683751
1069.000000 14.031535
1070.000000 9.667131
1071.000000 7.554231
1072.000000 7.539914
1073.000000 4.278120
1074.000000 5.457343
1075.000000 6.466983
1076.000000 10.750853
1077.000000 6.460606
1078.000000 6.446754
1079.000000 9.686005
1080.000000 16.130505
1081.000000 7.557077
1082.000000 2.164213
1083.000000 6.497171
1084.000000 7.540960
1085.000000 8.691044
1086.000000 7.560449
1087.000000 10.768657
1088.000000 11.863572
1089.000000 11.873577
1090.000000 8.642826
1091.000000 4.308982
1092.000000 15.105740
1093.000000 8.667285
1094.000000 9.780616
1095.000000 2.150420
1096.000000 5.416887
1097.000000 5.412307
1098.000000 11.838947
1099.000000 9.708677
1100.000000 5.397202
1101.000000 4.297986
1102.000000 10.867481
1103.000000 14.013174
1104.000000 11.842442
1105.000000 6.481157
1106.000000 9.712678
1107.000000 10.773225
1108.000000 11.921395
1109.000000 8.635380
1110.000000 4.310061
1111.000000 5.369622
1112.000000 11.949994
1113.000000 7.517846
1114.000000 6.464411
1115.000000 11.865308
1116.000000 7.543957
1117.000000 7.537964
1118.000000 11.840553
1119.000000 9.720113
1120.000000 6.498993
1121.000000 10.742532
1122.000000 3.253418
1123.000000 12.851422
1124.000000 15.169461
1125.000000 8.626137
1126.000000 4.306998
1127.000000 5.423034
1128.000000 6.460992
1129.000000 4.352792
1130.000000 4.307569
1131.000000 8.634750
1132.000000 8.568073
1133.000000 8.577192
1134.000000 5.401317
1135.000000 9.728527
1136.000000 12.936510
1137.000000 9.719000
1138.000000 16.159639
1139.000000 5.379010
1140.000000 6.440895
1141.000000 10.770660
1142.000000 3.223737
1143.000000 7.551064
1144.000000 9.675595
1145.000000 9.679099
1146.000000 17.287798
1147.000000 8.604594
1148.000000 6.440717
1149.000000 7.566629
1150.000000 7.566587
1151.000000 8.657033
1152.000000 11.872587
1153.000000 7.504838
1154.000000 10.722911
1155.000000 2.150049
1156.000000 11.833112
1157.000000 7.540603
1158.000000 12.869889
1159.000000 10.757894
1160.000000 9.718330
1161.000000 8.656897
1162.000000 6.446519
1163.000000 8.612245
1164.000000 8.598241
1165.000000 10.771576
1166.000000 5.417035
1167.000000 3.253064
1168.000000 5.353970
1169.000000 4.286542
1170.000000 3.228507
1171.000000 2.142204
1172.000000 12.883261
1173.000000 8.617584
1174.000000 9.715630
1175.000000 4.296521
1176.000000 9.672706
1177.000000 8.596068
1178.000000 6.421485
1179.000000 10.757676
1180.000000 11.848545
1181.000000 4.318024
1182.000000 9.646784
1183.000000 9.687878
1184.000000 11.867686
1185.000000 8.531485
1186.000000 4.312074
1187.000000 5.361952
1188.000000 8.590220
1189.000000 4.316992
1190.000000 8.642712
1191.000000 6.416042
1192.000000 10.744318
1193.000000 11.792020
1194.000000 14.020339
1195.000000 7.478600
1196.000000 6.481831
1197.000000 7.515770
1198.000000 5.357481
1199.000000 3.221798
1200.000000 8.599736
1201.000000 12.838060
1202.000000 9.678189
1203.000000 11.816681
1204.000000 8.623580
1205.000000 9.593357
1206.000000 7.530560
1207.000000 11.809431
1208.000000 12.863527
1209.000000 12.965456
1210.000000 10.645558
1211.000000 9.750306
1212.000000 9.687618
1213.000000 10.720978
1214.000000 6.456664
1215.000000 8.577347
1216.000000 17.091257
1217.000000 4.315745
1218.000000 7.537698
1219.000000 13.976788
1220.000000 6.455390
1221.000000 6.430563
1222.000000 10.739198
1223.000000 10.738132
1224.000000 7.498450
1225.000000 8.555862
1226.000000 9.689684
1227.000000 6.435079
1228.000000 3.236046
1229.000000 9.640158
1230.000000 8.623551
1231.000000 10.741092
1232.000000 11.839826
1233.000000 6.426854
1234.000000 9.678941
1235.000000 7.521859
1236.000000 8.562538
1237.000000 10.742663
1238.000000 10.754999
1239.000000 10.676479
1240.000000 7.505336
1241.000000 7.497535
1242.000000 6.408411
1243.000000 11.788499
1244.000000 10.706552
1245.000000 4.275540
1246.000000 4.285501
1247.000000 9.725305
1248.000000 7.494065
1249.000000 9.641454
1250.000000 7.515016
1251.000000 6.440236
1252.000000 7.502103
1253.000000 6.437762
1254.000000 13.860740
1255.000000 5.343722
1256.000000 13.987557
1257.000000 11.824332
1258.000000 5.368842
1259.000000 6.447355
1260.000000 10.738409
1261.000000 9.580341
1262.000000 13.880545
1263.000000 18.191403
1264.000000 6.444059
1265.000000 11.839333
1266.000000 8.563711
1267.000000 4.272757
1268.000000 10.814754
1269.000000 5.402123
1270.000000 9.616368
1271.000000 9.681701
1272.000000 8.582263
1273.000000 1.070428
1274.000000 7.529511
1275.000000 3.200859
1276.000000 8.584003
1277.000000 14.968441
1278.000000 8.608127
1279.000000 9.624884
1280.000000 5.349862
1281.000000 6.448375
1282.000000 8.603412
1283.000000 5.351732
1284.000000 5.391510
1285.000000 8.535708
1286.000000 11.802864
1287.000000 9.681549
1288.000000 8.549118
1289.000000 9.695433
1290.000000 4.294608
1291.000000 9.673108
1292.000000 5.352359
1293.000000 10.750926
1294.000000 8.581274
1295.000000 7.490914
1296.000000 12.839633
1297.000000 5.363198
1298.000000 4.287921
1299.000000 11.802582
