# Left column = Time after Trigger in seconds & Right column = # Counts / Exposure = Flux per cm² s
700.000000 11.811961
701.000000 10.722909
702.000000 8.543162
703.000000 4.289745
704.000000 13.906759
705.000000 7.479622
706.000000 11.819222
707.000000 14.867035
708.000000 11.759551
709.000000 16.004402
710.000000 2.156791
711.000000 13.831435
712.000000 7.475303
713.000000 13.979468
714.000000 7.503230
715.000000 9.671478
716.000000 13.862241
717.000000 8.597488
718.000000 8.547120
719.000000 11.812265
720.000000 6.419243
721.000000 10.689291
722.000000 11.793895
723.000000 16.045346
724.000000 10.689648
725.000000 7.457443
726.000000 9.618134
727.000000 8.516783
728.000000 10.720643
729.000000 9.620219
730.000000 9.670305
731.000000 8.582168
732.000000 7.545229
733.000000 3.226322
734.000000 8.569151
735.000000 12.912045
736.000000 13.976123
737.000000 11.775653
738.000000 7.558068
739.000000 12.960680
740.000000 14.957746
741.000000 7.499472
742.000000 6.407508
743.000000 10.692986
744.000000 11.783843
745.000000 16.083620
746.000000 12.746438
747.000000 10.645773
748.000000 14.963387
749.000000 12.844683
750.000000 13.961404
751.000000 6.412010
752.000000 14.948106
753.000000 9.609850
754.000000 17.087754
755.000000 12.984443
756.000000 9.623378
757.000000 8.601304
758.000000 11.754281
759.000000 18.250581
760.000000 3.206337
761.000000 10.735200
762.000000 7.487576
763.000000 4.304017
764.000000 11.808295
765.000000 5.317339
766.000000 13.969387
767.000000 8.585480
768.000000 10.645134
769.000000 9.684337
770.000000 11.700280
771.000000 14.965161
772.000000 9.673055
773.000000 11.707304
774.000000 6.434769
775.000000 8.512025
776.000000 11.770289
777.000000 5.362403
778.000000 10.716943
779.000000 8.599771
780.000000 11.777398
781.000000 4.295257
782.000000 3.209766
783.000000 11.807410
784.000000 13.880154
785.000000 13.941811
786.000000 7.520894
787.000000 3.213443
788.000000 9.603240
789.000000 13.892238
790.000000 8.546086
791.000000 11.840462
792.000000 11.819621
793.000000 2.149222
794.000000 6.485336
795.000000 11.762407
796.000000 9.697377
797.000000 10.735946
798.000000 9.626251
799.000000 9.701837
800.000000 9.655197
801.000000 12.840454
802.000000 9.680658
803.000000 8.597727
804.000000 8.618729
805.000000 12.862657
806.000000 13.936894
807.000000 9.660274
808.000000 9.643637
809.000000 13.919048
810.000000 13.956454
811.000000 10.723547
812.000000 15.055547
813.000000 20.378873
814.000000 12.863922
815.000000 11.796155
816.000000 17.096782
817.000000 4.254589
818.000000 7.508598
819.000000 11.801326
820.000000 8.534273
821.000000 15.052572
822.000000 4.289409
823.000000 12.838863
824.000000 13.960779
825.000000 15.019065
826.000000 6.442630
827.000000 11.805885
828.000000 8.603647
829.000000 3.199373
830.000000 10.763534
831.000000 10.721222
832.000000 11.779773
833.000000 16.204770
834.000000 7.516267
835.000000 9.692467
836.000000 11.756007
837.000000 3.207372
838.000000 10.793509
839.000000 9.631276
840.000000 15.005107
841.000000 10.667403
842.000000 7.524464
843.000000 7.566948
844.000000 17.148978
845.000000 6.432507
846.000000 11.794865
847.000000 7.492478
848.000000 9.700091
849.000000 8.615299
850.000000 15.124599
851.000000 11.899648
852.000000 10.751145
853.000000 4.304518
854.000000 8.614099
855.000000 9.668909
856.000000 8.579003
857.000000 6.446338
858.000000 9.620188
859.000000 9.690109
860.000000 16.064858
861.000000 7.471283
862.000000 10.747081
863.000000 9.679939
864.000000 12.951954
865.000000 13.871085
866.000000 8.569310
867.000000 7.538784
868.000000 7.462760
869.000000 7.498288
870.000000 9.563192
871.000000 10.683086
872.000000 8.554031
873.000000 12.858787
874.000000 11.837848
875.000000 8.616538
876.000000 16.118154
877.000000 7.541127
878.000000 5.362624
879.000000 6.425709
880.000000 15.022199
881.000000 11.837815
882.000000 11.721915
883.000000 7.538739
884.000000 10.795992
885.000000 13.987535
886.000000 9.682587
887.000000 9.641370
888.000000 6.464543
889.000000 10.707606
890.000000 6.406637
891.000000 4.296252
892.000000 6.428901
893.000000 13.940973
894.000000 15.075794
895.000000 11.742870
896.000000 5.335539
897.000000 13.933554
898.000000 16.072775
899.000000 5.383422
900.000000 3.225098
901.000000 8.606571
902.000000 7.513561
903.000000 6.423719
904.000000 6.454994
905.000000 7.547411
906.000000 13.876242
907.000000 13.991405
908.000000 12.845791
909.000000 8.591667
910.000000 7.521937
911.000000 10.710535
912.000000 9.746964
913.000000 11.800311
914.000000 7.499216
915.000000 12.955894
916.000000 13.921368
917.000000 11.780104
918.000000 12.924818
919.000000 3.251021
920.000000 6.490933
921.000000 7.591514
922.000000 14.009273
923.000000 12.933078
924.000000 13.961146
925.000000 8.576155
926.000000 5.375548
927.000000 15.090557
928.000000 12.953709
929.000000 8.600199
930.000000 13.937909
931.000000 8.618797
932.000000 10.706436
933.000000 8.556972
934.000000 7.515673
935.000000 8.581836
936.000000 10.710448
937.000000 6.458185
938.000000 8.572712
939.000000 9.630175
940.000000 6.476111
941.000000 12.952206
942.000000 8.657590
943.000000 10.735982
944.000000 11.810940
945.000000 8.606433
946.000000 10.676777
947.000000 13.993520
948.000000 11.842718
949.000000 10.779131
950.000000 12.831261
951.000000 11.817248
952.000000 16.123667
953.000000 8.640118
954.000000 6.484110
955.000000 11.831864
956.000000 20.403871
957.000000 9.642975
958.000000 13.983207
959.000000 6.446686
960.000000 7.512585
961.000000 6.406385
962.000000 17.257057
963.000000 13.989912
964.000000 8.544680
965.000000 5.360161
966.000000 10.797431
967.000000 8.635920
968.000000 14.970245
969.000000 8.613643
970.000000 5.358241
971.000000 14.980373
972.000000 14.009411
973.000000 12.879650
974.000000 14.954514
975.000000 6.464768
976.000000 8.626565
977.000000 7.488500
978.000000 9.706147
979.000000 6.484275
980.000000 11.764956
981.000000 14.033109
982.000000 9.726316
983.000000 8.671521
984.000000 9.707786
985.000000 15.018111
986.000000 7.515012
987.000000 10.754431
988.000000 8.581714
989.000000 12.960361
990.000000 9.640189
991.000000 8.654239
992.000000 4.306479
993.000000 9.626032
994.000000 9.647747
995.000000 12.861173
996.000000 10.749188
997.000000 9.709877
998.000000 11.791855
999.000000 5.372265
1000.000000 33.389089
1001.000000 28.165042
1002.000000 24.774257
1003.000000 18.317860
1004.000000 17.247671
1005.000000 16.067450
1006.000000 9.696551
1007.000000 6.441451
1008.000000 16.156315
1009.000000 18.266058
1010.000000 35.869706
1011.000000 16.120337
1012.000000 17.290098
1013.000000 13.927396
1014.000000 14.027497
1015.000000 17.198132
1016.000000 15.097695
1017.000000 11.861725
1018.000000 19.344444
1019.000000 12.890937
1020.000000 4.338583
1021.000000 12.876460
1022.000000 10.875859
1023.000000 13.040201
1024.000000 15.090478
1025.000000 10.770011
1026.000000 12.834700
1027.000000 10.730466
1028.000000 10.806401
1029.000000 7.560746
1030.000000 15.202031
1031.000000 12.898045
1032.000000 11.791341
1033.000000 9.719912
1034.000000 7.474464
1035.000000 11.802812
1036.000000 16.248231
1037.000000 14.034223
1038.000000 7.491863
1039.000000 9.704549
1040.000000 14.021264
1041.000000 6.487521
1042.000000 8.592584
1043.000000 16.137503
1044.000000 10.842994
1045.000000 10.779145
1046.000000 10.773855
1047.000000 19.401943
1048.000000 8.574064
1049.000000 10.744509
1050.000000 14.033943
1051.000000 11.837900
1052.000000 11.894678
1053.000000 9.729841
1054.000000 8.588318
1055.000000 7.568887
1056.000000 12.989786
1057.000000 9.697669
1058.000000 6.473155
1059.000000 14.027406
1060.000000 9.748699
1061.000000 9.686820
1062.000000 8.669901
1063.000000 13.983971
1064.000000 7.502848
1065.000000 13.964932
1066.000000 17.166893
1067.000000 10.677197
1068.000000 12.935201
1069.000000 9.694151
1070.000000 11.897230
1071.000000 6.465362
1072.000000 13.940461
1073.000000 12.922916
1074.000000 6.449692
1075.000000 9.654537
1076.000000 8.631434
1077.000000 10.732442
1078.000000 11.932392
1079.000000 11.861633
1080.000000 11.826377
1081.000000 11.849331
1082.000000 12.992014
1083.000000 13.995976
1084.000000 7.504921
1085.000000 11.830466
1086.000000 6.446248
1087.000000 8.595877
1088.000000 11.906920
1089.000000 8.605508
1090.000000 9.686549
1091.000000 9.620834
1092.000000 18.276238
1093.000000 11.883560
1094.000000 8.640292
1095.000000 8.614693
1096.000000 7.529391
1097.000000 11.767767
1098.000000 15.059804
1099.000000 10.746404
1100.000000 14.993460
1101.000000 10.710572
1102.000000 9.733357
1103.000000 8.619286
1104.000000 11.909532
1105.000000 3.249378
1106.000000 16.182035
1107.000000 9.730629
1108.000000 8.602650
1109.000000 7.521598
1110.000000 14.019004
1111.000000 8.601203
1112.000000 11.812830
1113.000000 11.867928
1114.000000 17.247208
1115.000000 10.831210
1116.000000 9.699517
1117.000000 12.839194
1118.000000 5.355070
1119.000000 13.982590
1120.000000 14.957926
1121.000000 15.001294
1122.000000 14.965731
1123.000000 10.700623
1124.000000 9.668630
1125.000000 8.561507
1126.000000 7.523457
1127.000000 25.960528
1128.000000 12.918939
1129.000000 16.093541
1130.000000 14.048536
1131.000000 11.783195
1132.000000 10.734770
1133.000000 12.972665
1134.000000 12.842321
1135.000000 7.570736
1136.000000 16.047825
1137.000000 7.542416
1138.000000 17.200573
1139.000000 14.017669
1140.000000 13.979084
1141.000000 16.036332
1142.000000 13.978073
1143.000000 9.683036
1144.000000 17.174412
1145.000000 13.900737
1146.000000 15.121548
1147.000000 9.627124
1148.000000 17.081509
1149.000000 16.152828
1150.000000 17.188020
1151.000000 16.145764
1152.000000 10.760440
1153.000000 14.002892
1154.000000 16.151329
1155.000000 16.099687
1156.000000 11.799912
1157.000000 12.926579
1158.000000 11.809164
1159.000000 15.095506
1160.000000 12.928803
1161.000000 15.990143
1162.000000 21.474990
1163.000000 10.761060
1164.000000 10.773736
1165.000000 9.674830
1166.000000 11.842094
1167.000000 9.597204
1168.000000 15.085105
1169.000000 15.009505
1170.000000 7.516428
1171.000000 16.092280
1172.000000 11.787455
1173.000000 15.050084
1174.000000 15.123858
1175.000000 15.120971
1176.000000 12.880777
1177.000000 14.968857
1178.000000 6.506269
1179.000000 11.908115
1180.000000 12.931252
1181.000000 10.720517
1182.000000 9.686420
1183.000000 16.147480
1184.000000 9.676837
1185.000000 15.068379
1186.000000 9.702372
1187.000000 13.946346
1188.000000 11.832171
1189.000000 21.485918
1190.000000 13.943532
1191.000000 8.627001
1192.000000 21.463051
1193.000000 10.723947
1194.000000 17.096310
1195.000000 16.064273
1196.000000 10.755017
1197.000000 19.390161
1198.000000 16.124574
1199.000000 12.887268
1200.000000 13.883812
1201.000000 9.638991
1202.000000 7.497353
1203.000000 8.563828
1204.000000 20.618160
1205.000000 16.035343
1206.000000 11.907273
1207.000000 11.834310
1208.000000 7.523407
1209.000000 9.699791
1210.000000 10.791997
1211.000000 12.836492
1212.000000 10.757111
1213.000000 16.073935
1214.000000 15.138135
1215.000000 18.235770
1216.000000 10.862999
1217.000000 9.718472
1218.000000 12.969677
1219.000000 15.087794
1220.000000 5.377699
1221.000000 16.197268
1222.000000 5.379527
1223.000000 17.230875
1224.000000 9.720248
1225.000000 10.797406
1226.000000 12.919539
1227.000000 15.119630
1228.000000 12.878675
1229.000000 8.665116
1230.000000 12.973515
1231.000000 16.138024
1232.000000 10.718384
1233.000000 15.044114
1234.000000 11.767109
1235.000000 9.689609
1236.000000 17.194898
1237.000000 6.458572
1238.000000 8.620900
1239.000000 10.688179
1240.000000 13.970708
1241.000000 14.017324
1242.000000 10.826141
1243.000000 11.803479
1244.000000 14.989836
1245.000000 8.573840
1246.000000 15.118007
1247.000000 16.032623
1248.000000 8.570739
1249.000000 10.707452
1250.000000 10.762142
1251.000000 10.665589
1252.000000 10.744306
1253.000000 8.592243
1254.000000 15.021219
1255.000000 8.640350
1256.000000 11.854837
1257.000000 18.247579
1258.000000 8.590964
1259.000000 12.871344
1260.000000 12.837835
1261.000000 13.977980
1262.000000 16.188987
1263.000000 8.565295
1264.000000 14.005918
1265.000000 9.678916
1266.000000 5.381279
1267.000000 17.146033
1268.000000 9.628539
1269.000000 15.145834
1270.000000 10.841955
1271.000000 10.719213
1272.000000 17.326307
1273.000000 6.431647
1274.000000 10.765108
1275.000000 20.429965
1276.000000 13.974920
1277.000000 10.755763
1278.000000 14.010799
1279.000000 13.983092
1280.000000 15.108009
1281.000000 17.186142
1282.000000 9.816630
1283.000000 14.076265
1284.000000 15.025300
1285.000000 9.610557
1286.000000 19.308751
1287.000000 8.613963
1288.000000 6.435727
1289.000000 8.634853
1290.000000 12.921353
1291.000000 8.624762
1292.000000 17.232667
1293.000000 21.621240
1294.000000 13.979112
1295.000000 15.127961
1296.000000 9.725812
1297.000000 15.124435
1298.000000 9.689340
1299.000000 18.284091
