# Left column = Time after Trigger in seconds & Right column = # Counts / Exposure = Flux per cm² s
700.000000 13.894321
701.000000 9.570764
702.000000 11.758083
703.000000 5.334389
704.000000 5.358775
705.000000 9.573053
706.000000 8.540034
707.000000 8.511008
708.000000 8.503936
709.000000 11.812594
710.000000 7.466768
711.000000 8.535255
712.000000 10.699967
713.000000 14.986539
714.000000 11.771113
715.000000 8.523160
716.000000 11.765552
717.000000 11.738797
718.000000 8.557119
719.000000 11.736919
720.000000 12.821280
721.000000 11.747505
722.000000 12.784012
723.000000 17.128668
724.000000 8.535918
725.000000 8.489563
726.000000 11.710472
727.000000 5.341726
728.000000 12.803168
729.000000 5.355595
730.000000 8.551476
731.000000 6.391566
732.000000 12.835804
733.000000 6.424519
734.000000 9.607640
735.000000 9.611961
736.000000 6.373989
737.000000 13.896941
738.000000 5.376534
739.000000 11.773568
740.000000 8.595829
741.000000 5.343497
742.000000 9.652133
743.000000 12.779461
744.000000 5.346728
745.000000 8.502739
746.000000 7.469324
747.000000 10.722704
748.000000 8.531388
749.000000 9.666952
750.000000 10.698107
751.000000 6.429529
752.000000 9.620522
753.000000 4.259414
754.000000 10.694947
755.000000 12.847708
756.000000 13.867546
757.000000 9.643687
758.000000 6.403032
759.000000 10.758143
760.000000 9.663101
761.000000 8.559834
762.000000 4.267649
763.000000 6.403598
764.000000 9.638508
765.000000 5.342280
766.000000 5.349070
767.000000 12.775372
768.000000 8.559520
769.000000 11.732984
770.000000 9.632010
771.000000 7.477944
772.000000 5.359007
773.000000 10.646745
774.000000 4.297741
775.000000 14.956004
776.000000 7.473122
777.000000 8.574226
778.000000 7.469315
779.000000 8.515573
780.000000 6.401186
781.000000 4.311075
782.000000 6.438028
783.000000 12.898200
784.000000 5.316008
785.000000 12.868946
786.000000 5.340843
787.000000 6.424931
788.000000 7.489976
789.000000 8.560722
790.000000 8.578475
791.000000 10.716185
792.000000 10.740588
793.000000 9.642845
794.000000 6.456042
795.000000 8.530115
796.000000 8.534376
797.000000 7.458651
798.000000 12.848462
799.000000 9.631752
800.000000 5.356612
801.000000 10.686714
802.000000 6.413705
803.000000 6.430124
804.000000 3.196699
805.000000 7.512024
806.000000 14.932965
807.000000 7.482078
808.000000 15.985065
809.000000 10.666829
810.000000 10.704621
811.000000 8.561163
812.000000 7.461017
813.000000 8.600135
814.000000 11.774231
815.000000 7.464198
816.000000 8.541028
817.000000 11.785114
818.000000 7.459906
819.000000 14.972834
820.000000 11.717093
821.000000 7.495640
822.000000 10.682288
823.000000 9.665197
824.000000 6.440699
825.000000 7.507083
826.000000 10.717536
827.000000 5.372780
828.000000 11.743598
829.000000 9.622187
830.000000 8.551988
831.000000 8.532650
832.000000 11.796909
833.000000 6.444743
834.000000 7.474875
835.000000 10.694479
836.000000 9.582299
837.000000 5.368692
838.000000 9.647107
839.000000 10.665109
840.000000 5.370244
841.000000 11.755357
842.000000 7.522125
843.000000 9.680954
844.000000 6.457817
845.000000 12.850234
846.000000 7.564667
847.000000 10.702624
848.000000 6.427738
849.000000 4.280831
850.000000 8.583556
851.000000 9.653007
852.000000 9.694379
853.000000 5.377113
854.000000 7.534247
855.000000 15.001652
856.000000 10.749327
857.000000 11.883415
858.000000 9.692220
859.000000 8.600541
860.000000 5.370278
861.000000 6.454082
862.000000 9.750562
863.000000 7.497457
864.000000 13.020247
865.000000 16.013271
866.000000 10.724159
867.000000 11.835657
868.000000 7.479059
869.000000 7.541092
870.000000 4.315566
871.000000 10.744147
872.000000 10.758481
873.000000 9.687345
874.000000 12.932420
875.000000 7.541143
876.000000 10.774268
877.000000 16.121329
878.000000 11.831175
879.000000 5.397587
880.000000 7.525058
881.000000 9.688371
882.000000 6.453551
883.000000 8.616638
884.000000 9.679601
885.000000 9.709229
886.000000 7.515179
887.000000 7.503491
888.000000 6.492940
889.000000 11.842302
890.000000 7.464274
891.000000 10.789166
892.000000 21.652136
893.000000 5.404507
894.000000 10.789265
895.000000 7.553537
896.000000 4.335429
897.000000 10.796775
898.000000 9.741183
899.000000 10.796092
900.000000 11.837287
901.000000 8.583897
902.000000 9.705162
903.000000 12.966314
904.000000 5.416293
905.000000 7.601023
906.000000 6.483291
907.000000 14.021117
908.000000 3.236596
909.000000 12.992541
910.000000 9.700467
911.000000 11.906239
912.000000 10.741310
913.000000 7.627023
914.000000 10.723225
915.000000 11.811462
916.000000 7.537127
917.000000 3.223034
918.000000 10.832514
919.000000 7.568599
920.000000 5.418225
921.000000 12.971279
922.000000 12.868092
923.000000 7.556939
924.000000 10.796982
925.000000 8.596910
926.000000 12.956722
927.000000 8.602776
928.000000 6.517013
929.000000 15.058470
930.000000 9.784156
931.000000 15.065479
932.000000 10.829361
933.000000 10.771650
934.000000 8.665513
935.000000 11.870638
936.000000 8.676062
937.000000 14.149007
938.000000 8.610127
939.000000 14.039857
940.000000 18.523028
941.000000 6.494971
942.000000 10.818601
943.000000 3.231810
944.000000 10.831176
945.000000 14.137152
946.000000 15.105761
947.000000 10.807301
948.000000 6.498791
949.000000 10.833601
950.000000 3.249148
951.000000 21.620957
952.000000 7.577465
953.000000 10.815912
954.000000 15.158800
955.000000 11.844676
956.000000 10.813458
957.000000 10.798643
958.000000 6.483987
959.000000 11.871331
960.000000 9.759476
961.000000 10.841836
962.000000 7.591243
963.000000 5.425279
964.000000 8.714361
965.000000 10.884799
966.000000 8.672683
967.000000 9.785419
968.000000 10.861076
969.000000 6.470750
970.000000 12.007388
971.000000 11.882050
972.000000 13.100415
973.000000 9.756339
974.000000 9.737563
975.000000 4.323487
976.000000 14.112810
977.000000 14.044753
978.000000 9.712889
979.000000 14.159576
980.000000 5.400746
981.000000 5.413477
982.000000 6.504918
983.000000 9.769831
984.000000 13.105873
985.000000 10.829338
986.000000 10.814702
987.000000 6.465365
988.000000 10.892396
989.000000 11.946051
990.000000 5.412954
991.000000 16.412329
992.000000 11.985857
993.000000 10.844523
994.000000 13.123160
995.000000 18.488799
996.000000 6.520832
997.000000 13.064222
998.000000 7.629786
999.000000 13.364344
1000.000000 376.211663
1001.000000 43.350448
1002.000000 104.307344
1003.000000 79.230665
1004.000000 68.452400
1005.000000 87.875833
1006.000000 73.871811
1007.000000 75.583743
1008.000000 55.338228
1009.000000 69.739223
1010.000000 46.681726
1011.000000 41.597453
1012.000000 43.550059
1013.000000 25.156133
1014.000000 33.789970
1015.000000 26.090722
1016.000000 30.783102
1017.000000 35.962968
1018.000000 22.982482
1019.000000 24.955434
1020.000000 20.661751
1021.000000 20.662931
1022.000000 18.626126
1023.000000 18.567001
1024.000000 15.268739
1025.000000 19.858049
1026.000000 18.486434
1027.000000 15.304214
1028.000000 17.493876
1029.000000 21.736015
1030.000000 18.505862
1031.000000 10.836946
1032.000000 19.533318
1033.000000 13.114086
1034.000000 20.796432
1035.000000 17.417885
1036.000000 17.392794
1037.000000 20.802405
1038.000000 16.468387
1039.000000 20.816563
1040.000000 23.945516
1041.000000 15.348612
1042.000000 10.827357
1043.000000 14.145538
1044.000000 10.855556
1045.000000 15.229490
1046.000000 12.012687
1047.000000 15.286565
1048.000000 13.127733
1049.000000 16.448274
1050.000000 14.113391
1051.000000 13.108110
1052.000000 16.319069
1053.000000 9.769604
1054.000000 17.463737
1055.000000 8.748887
1056.000000 19.527057
1057.000000 19.769081
1058.000000 10.933659
1059.000000 14.192345
1060.000000 9.791228
1061.000000 20.734035
1062.000000 5.446663
1063.000000 15.245418
1064.000000 12.011125
1065.000000 16.389848
1066.000000 9.817688
1067.000000 20.810413
1068.000000 6.560925
1069.000000 8.673992
1070.000000 13.028077
1071.000000 14.157421
1072.000000 13.076159
1073.000000 12.020858
1074.000000 8.724143
1075.000000 8.788340
1076.000000 26.231515
1077.000000 6.565721
1078.000000 14.111397
1079.000000 10.893118
1080.000000 13.132942
1081.000000 8.698823
1082.000000 18.541341
1083.000000 7.571567
1084.000000 13.100820
1085.000000 11.943401
1086.000000 11.976503
1087.000000 18.562374
1088.000000 19.765221
1089.000000 15.221421
1090.000000 16.303619
1091.000000 18.505555
1092.000000 8.688132
1093.000000 9.858420
1094.000000 12.006330
1095.000000 8.760186
1096.000000 14.173585
1097.000000 7.631880
1098.000000 15.279629
1099.000000 14.142852
1100.000000 12.008413
1101.000000 14.167303
1102.000000 4.333133
1103.000000 16.269124
1104.000000 7.657622
1105.000000 9.795617
1106.000000 9.754425
1107.000000 11.928135
1108.000000 12.026597
1109.000000 14.130764
1110.000000 11.955934
1111.000000 21.532037
1112.000000 6.494634
1113.000000 8.732156
1114.000000 9.807256
1115.000000 13.053472
1116.000000 13.094880
1117.000000 12.974396
1118.000000 6.516983
1119.000000 9.786710
1120.000000 12.075067
1121.000000 19.587272
1122.000000 11.984302
1123.000000 10.823404
1124.000000 8.728456
1125.000000 14.181647
1126.000000 16.281747
1127.000000 16.402750
1128.000000 13.080891
1129.000000 11.969241
1130.000000 10.847705
1131.000000 8.737914
1132.000000 5.493585
1133.000000 9.823138
1134.000000 10.895250
1135.000000 16.357955
1136.000000 6.569777
1137.000000 7.635476
1138.000000 11.956925
1139.000000 9.791857
1140.000000 9.834025
1141.000000 8.649577
1142.000000 10.821880
1143.000000 10.867753
1144.000000 8.698778
1145.000000 10.883613
1146.000000 8.705530
1147.000000 13.039024
1148.000000 12.028195
1149.000000 8.649510
1150.000000 14.147594
1151.000000 6.492226
1152.000000 16.473387
1153.000000 15.185193
1154.000000 9.819044
1155.000000 8.696036
1156.000000 8.675046
1157.000000 12.033345
1158.000000 5.448129
1159.000000 15.220559
1160.000000 10.846826
1161.000000 8.719672
1162.000000 8.683797
1163.000000 14.099357
1164.000000 12.972048
1165.000000 9.789410
1166.000000 20.725484
1167.000000 16.294397
1168.000000 10.978836
1169.000000 17.332886
1170.000000 9.833147
1171.000000 14.152588
1172.000000 8.761661
1173.000000 6.507794
1174.000000 16.314083
1175.000000 9.773000
1176.000000 8.708496
1177.000000 15.217909
1178.000000 13.044898
1179.000000 14.237743
1180.000000 16.334764
1181.000000 11.932377
1182.000000 6.541495
1183.000000 6.506571
1184.000000 14.146041
1185.000000 7.610572
1186.000000 14.098358
1187.000000 12.078891
1188.000000 18.549679
1189.000000 15.280966
1190.000000 7.627371
1191.000000 10.972432
1192.000000 12.017155
1193.000000 17.476365
1194.000000 10.905678
1195.000000 7.621530
1196.000000 9.819547
1197.000000 14.170313
1198.000000 10.927678
1199.000000 10.872654
1200.000000 16.324803
1201.000000 9.800659
1202.000000 6.511618
1203.000000 7.585673
1204.000000 11.927559
1205.000000 9.840910
1206.000000 10.917364
1207.000000 8.698983
1208.000000 17.435932
1209.000000 10.830032
1210.000000 9.863567
1211.000000 15.233327
1212.000000 7.664693
1213.000000 10.887478
1214.000000 10.889757
1215.000000 12.931939
1216.000000 9.877600
1217.000000 13.021709
1218.000000 17.433780
1219.000000 16.233423
1220.000000 14.080486
1221.000000 10.890936
1222.000000 7.614387
1223.000000 12.033257
1224.000000 7.645481
1225.000000 14.140186
1226.000000 10.864890
1227.000000 13.119930
1228.000000 11.937083
1229.000000 8.695656
1230.000000 14.290283
1231.000000 6.560862
1232.000000 16.357751
1233.000000 9.838139
1234.000000 8.747937
1235.000000 7.660670
1236.000000 8.722746
1237.000000 14.143550
1238.000000 9.859952
1239.000000 10.901436
1240.000000 10.923337
1241.000000 13.122457
1242.000000 6.558055
1243.000000 13.006231
1244.000000 21.779476
1245.000000 10.882111
1246.000000 13.077269
1247.000000 13.173538
1248.000000 13.103255
1249.000000 5.429863
1250.000000 17.397942
1251.000000 7.639251
1252.000000 15.248729
1253.000000 16.389623
1254.000000 10.839799
1255.000000 14.238095
1256.000000 13.160874
1257.000000 8.671753
1258.000000 12.052870
1259.000000 10.855285
1260.000000 9.893876
1261.000000 10.849583
1262.000000 9.797949
1263.000000 9.810860
1264.000000 8.744536
1265.000000 9.778943
1266.000000 7.689709
1267.000000 11.945256
1268.000000 13.042972
1269.000000 6.568420
1270.000000 12.015881
1271.000000 5.480708
1272.000000 19.753770
1273.000000 12.010708
1274.000000 8.698531
1275.000000 4.397221
1276.000000 13.083984
1277.000000 12.039179
1278.000000 5.481892
1279.000000 9.793576
1280.000000 10.880707
1281.000000 5.460560
1282.000000 10.996192
1283.000000 15.341953
1284.000000 9.784849
1285.000000 14.152966
1286.000000 10.960432
1287.000000 15.254837
1288.000000 12.093556
1289.000000 12.101959
1290.000000 13.168899
1291.000000 25.083368
1292.000000 14.216088
1293.000000 16.386491
1294.000000 14.272761
1295.000000 14.255357
1296.000000 9.819724
1297.000000 10.864930
1298.000000 13.138180
1299.000000 11.018833
