# Left column = Time after Trigger in seconds & Right column = # Counts / Exposure = Flux per cm² s
700.000000 7.591327
701.000000 12.028114
702.000000 10.829023
703.000000 13.121941
704.000000 8.751621
705.000000 11.956645
706.000000 17.374528
707.000000 9.743086
708.000000 8.658056
709.000000 10.918583
710.000000 10.922468
711.000000 9.778745
712.000000 8.696834
713.000000 10.822368
714.000000 9.758488
715.000000 9.745082
716.000000 15.276932
717.000000 11.946558
718.000000 10.859593
719.000000 10.907159
720.000000 8.651537
721.000000 9.798126
722.000000 6.519508
723.000000 7.610827
724.000000 10.903045
725.000000 10.935485
726.000000 14.121993
727.000000 9.827457
728.000000 11.959680
729.000000 9.737074
730.000000 10.961226
731.000000 9.795184
732.000000 9.808764
733.000000 10.817622
734.000000 19.717660
735.000000 12.978614
736.000000 15.222161
737.000000 13.065041
738.000000 5.389002
739.000000 11.949315
740.000000 8.732635
741.000000 19.581772
742.000000 6.504248
743.000000 11.932608
744.000000 4.362367
745.000000 17.445424
746.000000 11.930915
747.000000 9.727063
748.000000 12.947328
749.000000 6.560236
750.000000 17.481880
751.000000 6.527185
752.000000 6.530890
753.000000 7.618906
754.000000 10.917737
755.000000 13.055047
756.000000 8.722696
757.000000 11.967989
758.000000 8.752341
759.000000 11.968745
760.000000 10.942983
761.000000 13.034711
762.000000 10.929769
763.000000 9.798121
764.000000 8.663147
765.000000 5.480345
766.000000 9.767779
767.000000 18.520566
768.000000 8.729039
769.000000 15.247997
770.000000 11.945554
771.000000 7.649840
772.000000 16.442720
773.000000 18.470300
774.000000 6.550065
775.000000 7.608711
776.000000 8.706712
777.000000 11.973450
778.000000 11.975490
779.000000 10.983941
780.000000 9.796437
781.000000 7.649632
782.000000 7.611186
783.000000 10.872595
784.000000 11.888432
785.000000 7.611059
786.000000 12.020559
787.000000 18.515422
788.000000 8.765784
789.000000 9.767424
790.000000 9.761236
791.000000 13.093386
792.000000 4.363237
793.000000 10.943491
794.000000 10.913369
795.000000 7.649831
796.000000 17.518625
797.000000 13.196253
798.000000 10.907395
799.000000 14.256125
800.000000 10.865955
801.000000 10.838249
802.000000 11.941850
803.000000 12.009636
804.000000 7.570023
805.000000 13.111732
806.000000 7.611277
807.000000 12.001772
808.000000 10.854502
809.000000 5.420105
810.000000 6.563999
811.000000 12.015819
812.000000 8.731347
813.000000 10.888640
814.000000 10.828410
815.000000 8.730428
816.000000 13.100498
817.000000 15.203850
818.000000 8.728829
819.000000 12.028281
820.000000 15.413867
821.000000 8.688721
822.000000 9.836022
823.000000 13.093342
824.000000 7.653468
825.000000 16.321962
826.000000 15.328038
827.000000 13.073260
828.000000 17.423511
829.000000 6.554011
830.000000 8.667292
831.000000 13.116030
832.000000 9.742817
833.000000 7.704155
834.000000 12.050564
835.000000 9.830307
836.000000 15.298831
837.000000 9.818210
838.000000 10.933179
839.000000 7.630778
840.000000 8.735465
841.000000 15.267398
842.000000 12.021477
843.000000 10.879622
844.000000 13.048462
845.000000 10.944462
846.000000 14.149841
847.000000 10.915305
848.000000 13.104243
849.000000 11.011150
850.000000 8.725278
851.000000 10.925989
852.000000 13.022240
853.000000 13.115915
854.000000 10.968626
855.000000 13.178108
856.000000 14.184627
857.000000 7.618695
858.000000 6.571279
859.000000 17.430178
860.000000 7.591628
861.000000 15.283759
862.000000 10.910296
863.000000 14.181377
864.000000 6.529973
865.000000 15.296023
866.000000 8.695365
867.000000 7.630613
868.000000 15.357189
869.000000 20.751890
870.000000 13.066517
871.000000 13.117965
872.000000 15.202193
873.000000 8.663630
874.000000 9.797440
875.000000 6.589047
876.000000 8.653037
877.000000 6.572020
878.000000 16.299758
879.000000 9.826008
880.000000 13.106192
881.000000 11.942683
882.000000 6.477688
883.000000 13.196911
884.000000 10.938278
885.000000 12.078168
886.000000 14.202209
887.000000 4.363799
888.000000 15.289138
889.000000 8.739750
890.000000 5.435315
891.000000 15.262976
892.000000 8.738004
893.000000 15.165806
894.000000 6.525585
895.000000 8.683866
896.000000 10.855002
897.000000 12.950404
898.000000 17.559102
899.000000 8.735124
900.000000 18.589908
901.000000 12.002453
902.000000 9.766797
903.000000 9.825489
904.000000 14.193023
905.000000 16.287119
906.000000 12.037830
907.000000 13.091319
908.000000 9.755935
909.000000 14.324322
910.000000 9.850801
911.000000 15.252825
912.000000 10.866557
913.000000 7.683212
914.000000 12.996654
915.000000 3.275930
916.000000 11.938568
917.000000 8.740169
918.000000 7.642713
919.000000 15.350329
920.000000 10.955771
921.000000 10.831523
922.000000 7.684294
923.000000 14.105157
924.000000 10.871903
925.000000 5.449157
926.000000 16.366123
927.000000 9.783412
928.000000 6.559913
929.000000 10.927262
930.000000 7.605524
931.000000 7.615224
932.000000 12.020671
933.000000 9.767457
934.000000 7.598384
935.000000 7.685756
936.000000 17.379144
937.000000 7.632209
938.000000 6.544713
939.000000 15.366179
940.000000 4.363128
941.000000 10.840035
942.000000 14.150685
943.000000 9.792742
944.000000 5.433223
945.000000 5.457951
946.000000 13.102629
947.000000 9.798064
948.000000 7.653517
949.000000 11.989546
950.000000 11.919696
951.000000 12.022983
952.000000 14.215770
953.000000 7.580983
954.000000 13.094044
955.000000 14.141382
956.000000 13.094929
957.000000 15.414316
958.000000 9.810717
959.000000 10.813484
960.000000 15.237972
961.000000 11.934279
962.000000 18.440274
963.000000 7.610046
964.000000 9.832815
965.000000 13.034144
966.000000 8.686896
967.000000 7.606624
968.000000 10.920417
969.000000 10.929981
970.000000 4.336855
971.000000 9.862041
972.000000 13.071781
973.000000 10.880355
974.000000 10.843623
975.000000 8.673043
976.000000 10.878108
977.000000 14.175313
978.000000 17.426054
979.000000 14.267506
980.000000 7.633168
981.000000 14.366287
982.000000 9.867057
983.000000 16.464549
984.000000 12.045182
985.000000 9.757367
986.000000 12.033308
987.000000 12.031790
988.000000 15.329284
989.000000 12.047752
990.000000 7.642147
991.000000 18.472145
992.000000 15.274805
993.000000 11.952410
994.000000 14.121883
995.000000 10.961931
996.000000 12.072599
997.000000 15.336964
998.000000 15.364278
999.000000 9.798863
1000.000000 11.993565
1001.000000 16.401168
1002.000000 10.889402
1003.000000 10.901439
1004.000000 17.486625
1005.000000 9.847814
1006.000000 11.977745
1007.000000 19.699320
1008.000000 19.598830
1009.000000 15.339729
1010.000000 7.638122
1011.000000 10.948853
1012.000000 16.324424
1013.000000 21.652826
1014.000000 6.508897
1015.000000 10.846721
1016.000000 3.266245
1017.000000 13.111905
1018.000000 8.755522
1019.000000 10.971669
1020.000000 10.836651
1021.000000 15.117478
1022.000000 12.018196
1023.000000 15.194188
1024.000000 9.808157
1025.000000 12.023095
1026.000000 14.258923
1027.000000 18.384426
1028.000000 9.746107
1029.000000 17.585908
1030.000000 6.496107
1031.000000 6.508845
1032.000000 17.354931
1033.000000 16.436554
1034.000000 12.014651
1035.000000 6.545166
1036.000000 14.228973
1037.000000 14.192930
1038.000000 14.147755
1039.000000 17.409888
1040.000000 11.960259
1041.000000 10.926343
1042.000000 14.169261
1043.000000 10.887506
1044.000000 12.074733
1045.000000 12.066830
1046.000000 12.079428
1047.000000 18.511023
1048.000000 15.328904
1049.000000 6.541213
1050.000000 8.784329
1051.000000 14.218486
1052.000000 10.903590
1053.000000 14.239747
1054.000000 12.041569
1055.000000 12.015393
1056.000000 5.478616
1057.000000 9.865009
1058.000000 9.760019
1059.000000 9.765076
1060.000000 8.722203
1061.000000 7.640008
1062.000000 9.814420
1063.000000 4.358177
1064.000000 10.970132
1065.000000 11.960363
1066.000000 7.719016
1067.000000 7.595995
1068.000000 11.994566
1069.000000 10.958262
1070.000000 15.204327
1071.000000 10.896715
1072.000000 13.073542
1073.000000 7.646954
1074.000000 5.464127
1075.000000 15.198196
1076.000000 11.865450
1077.000000 13.166888
1078.000000 15.299013
1079.000000 6.540121
1080.000000 12.052255
1081.000000 8.731816
1082.000000 6.544385
1083.000000 17.691082
1084.000000 7.666672
1085.000000 5.436794
1086.000000 13.139059
1087.000000 14.243614
1088.000000 10.892848
1089.000000 13.094980
1090.000000 35.940859
1091.000000 68.139373
1092.000000 109.020046
1093.000000 94.343244
1094.000000 74.452451
1095.000000 36.043807
1096.000000 30.544993
1097.000000 31.579533
1098.000000 27.321697
1099.000000 25.215017
1100.000000 19.717134
1101.000000 18.597491
1102.000000 19.754341
1103.000000 12.043203
1104.000000 14.192150
1105.000000 15.281859
1106.000000 13.102134
1107.000000 15.306939
1108.000000 12.027489
1109.000000 15.258320
1110.000000 10.862667
1111.000000 18.523407
1112.000000 13.288142
1113.000000 14.217741
1114.000000 15.399132
1115.000000 13.091045
1116.000000 20.729177
1117.000000 12.092425
1118.000000 20.660561
1119.000000 8.741850
1120.000000 18.488329
1121.000000 15.339769
1122.000000 9.791236
1123.000000 17.382362
1124.000000 9.937280
1125.000000 8.748830
1126.000000 18.621830
1127.000000 16.208191
1128.000000 12.032843
1129.000000 9.801811
1130.000000 14.152819
1131.000000 11.984159
1132.000000 10.935657
1133.000000 12.017009
1134.000000 13.062926
1135.000000 18.571350
1136.000000 18.578230
1137.000000 14.277047
1138.000000 13.058366
1139.000000 13.166223
1140.000000 0.000000
1141.000000 0.000000
1142.000000 0.000000
1143.000000 0.000000
1144.000000 0.000000
1145.000000 0.000000
1146.000000 0.000000
1147.000000 0.000000
1148.000000 0.000000
1149.000000 0.000000
1150.000000 0.000000
1151.000000 0.000000
1152.000000 2.203887
1153.000000 8.766288
1154.000000 16.313104
1155.000000 15.249273
1156.000000 20.829184
1157.000000 17.462363
1158.000000 7.640636
1159.000000 11.967912
1160.000000 7.724835
1161.000000 12.041725
1162.000000 10.953383
1163.000000 4.381170
1164.000000 6.585655
1165.000000 9.842986
1166.000000 12.062376
1167.000000 5.486015
1168.000000 9.834248
1169.000000 13.216348
1170.000000 13.218434
1171.000000 15.385303
1172.000000 15.350908
1173.000000 20.796337
1174.000000 12.100809
1175.000000 9.828640
1176.000000 14.167665
1177.000000 5.499424
1178.000000 11.990258
1179.000000 9.812666
1180.000000 17.540360
1181.000000 6.573157
1182.000000 5.477229
1183.000000 12.048864
1184.000000 6.514981
1185.000000 9.902352
1186.000000 18.548495
1187.000000 14.295299
1188.000000 7.664992
1189.000000 7.670546
1190.000000 10.966365
1191.000000 10.946865
1192.000000 9.875441
1193.000000 12.052708
1194.000000 18.615722
1195.000000 16.498886
1196.000000 13.109913
1197.000000 13.080968
1198.000000 12.054409
1199.000000 12.078307
1200.000000 13.123341
1201.000000 13.222682
1202.000000 12.039094
1203.000000 13.196662
1204.000000 15.446063
1205.000000 7.686226
1206.000000 14.131761
1207.000000 12.054914
1208.000000 14.258868
1209.000000 12.116883
1210.000000 12.055429
1211.000000 17.566008
1212.000000 13.287960
1213.000000 14.250072
1214.000000 17.452809
1215.000000 10.943838
1216.000000 11.069034
1217.000000 12.058451
1218.000000 12.095982
1219.000000 8.851620
1220.000000 16.490335
1221.000000 11.027179
1222.000000 15.359637
1223.000000 14.274883
1224.000000 12.099707
1225.000000 14.365105
1226.000000 14.286359
1227.000000 13.206883
1228.000000 9.821907
1229.000000 15.341884
1230.000000 14.252096
1231.000000 14.233957
1232.000000 6.584523
1233.000000 15.337409
1234.000000 15.380800
1235.000000 11.982579
1236.000000 18.608180
1237.000000 12.065798
1238.000000 14.242533
1239.000000 10.972891
1240.000000 7.671962
1241.000000 14.374184
1242.000000 10.917901
1243.000000 7.670700
1244.000000 12.073376
1245.000000 9.882226
1246.000000 6.594190
1247.000000 11.044426
1248.000000 12.080263
1249.000000 9.877952
1250.000000 13.119753
1251.000000 8.792638
1252.000000 15.352623
1253.000000 9.909099
1254.000000 9.824327
1255.000000 18.596612
1256.000000 8.768191
1257.000000 4.407008
1258.000000 12.159836
1259.000000 7.744787
1260.000000 13.198711
1261.000000 6.608183
1262.000000 12.101083
1263.000000 12.086897
1264.000000 9.869921
1265.000000 14.255287
1266.000000 15.438103
1267.000000 12.096757
1268.000000 12.120085
1269.000000 16.548452
1270.000000 16.530335
1271.000000 16.565691
1272.000000 16.438026
1273.000000 7.688260
1274.000000 8.778055
1275.000000 14.280311
1276.000000 11.001214
1277.000000 14.368618
1278.000000 13.262877
1279.000000 15.471795
1280.000000 12.137983
1281.000000 8.840413
1282.000000 15.327443
1283.000000 11.087652
1284.000000 9.786435
1285.000000 14.211492
1286.000000 17.631115
1287.000000 7.658910
1288.000000 11.015914
1289.000000 13.197377
1290.000000 21.029875
1291.000000 14.280925
1292.000000 6.635857
1293.000000 12.167761
1294.000000 7.675218
1295.000000 11.024385
1296.000000 16.450354
1297.000000 12.025035
1298.000000 10.973221
1299.000000 16.480135
