# Left column = Time after Trigger in seconds & Right column = # Counts / Exposure = Flux per cm² s
700.000000 0.000000
701.000000 0.000000
702.000000 0.000000
703.000000 0.000000
704.000000 0.000000
705.000000 0.000000
706.000000 0.000000
707.000000 0.000000
708.000000 0.000000
709.000000 0.000000
710.000000 0.000000
711.000000 0.000000
712.000000 0.000000
713.000000 0.000000
714.000000 0.000000
715.000000 0.000000
716.000000 0.000000
717.000000 0.000000
718.000000 0.000000
719.000000 0.000000
720.000000 0.000000
721.000000 0.000000
722.000000 0.000000
723.000000 0.000000
724.000000 0.000000
725.000000 0.000000
726.000000 0.000000
727.000000 0.000000
728.000000 0.000000
729.000000 0.000000
730.000000 0.000000
731.000000 0.000000
732.000000 0.000000
733.000000 0.000000
734.000000 0.000000
735.000000 0.000000
736.000000 0.000000
737.000000 0.000000
738.000000 0.000000
739.000000 0.000000
740.000000 0.000000
741.000000 0.000000
742.000000 0.000000
743.000000 0.000000
744.000000 0.000000
745.000000 0.000000
746.000000 0.000000
747.000000 0.000000
748.000000 0.000000
749.000000 0.000000
750.000000 0.000000
751.000000 0.000000
752.000000 0.000000
753.000000 0.000000
754.000000 0.000000
755.000000 0.000000
756.000000 0.000000
757.000000 0.000000
758.000000 0.000000
759.000000 0.000000
760.000000 0.000000
761.000000 0.000000
762.000000 0.000000
763.000000 0.000000
764.000000 0.000000
765.000000 0.000000
766.000000 0.000000
767.000000 0.000000
768.000000 0.000000
769.000000 0.000000
770.000000 0.000000
771.000000 0.000000
772.000000 0.000000
773.000000 0.000000
774.000000 0.000000
775.000000 0.000000
776.000000 0.000000
777.000000 0.000000
778.000000 0.000000
779.000000 0.000000
780.000000 0.000000
781.000000 0.000000
782.000000 0.000000
783.000000 0.000000
784.000000 0.000000
785.000000 0.000000
786.000000 0.000000
787.000000 0.000000
788.000000 0.000000
789.000000 2.182842
790.000000 10.930326
791.000000 20.761152
792.000000 13.176301
793.000000 10.837281
794.000000 9.801867
795.000000 6.537639
796.000000 17.588311
797.000000 10.842141
798.000000 27.381610
799.000000 10.889149
800.000000 15.308988
801.000000 13.083824
802.000000 8.671925
803.000000 20.709112
804.000000 15.264411
805.000000 11.984243
806.000000 16.459504
807.000000 11.968577
808.000000 11.976554
809.000000 7.647361
810.000000 16.387307
811.000000 14.273778
812.000000 9.818075
813.000000 13.079845
814.000000 16.328114
815.000000 16.281205
816.000000 18.433598
817.000000 13.144287
818.000000 16.513580
819.000000 9.819175
820.000000 10.971646
821.000000 13.131913
822.000000 22.956716
823.000000 16.321360
824.000000 15.151509
825.000000 15.266080
826.000000 10.871066
827.000000 13.135384
828.000000 16.340577
829.000000 10.900298
830.000000 15.305407
831.000000 17.507061
832.000000 16.405052
833.000000 17.502631
834.000000 7.642764
835.000000 14.200417
836.000000 21.801693
837.000000 14.139360
838.000000 13.076891
839.000000 10.950040
840.000000 12.056502
841.000000 14.151831
842.000000 20.837667
843.000000 10.959325
844.000000 15.262442
845.000000 14.182540
846.000000 14.274477
847.000000 9.787521
848.000000 17.373465
849.000000 10.875783
850.000000 14.163733
851.000000 11.925938
852.000000 8.717870
853.000000 14.246957
854.000000 15.191448
855.000000 14.176726
856.000000 13.047725
857.000000 6.552576
858.000000 9.812576
859.000000 10.930597
860.000000 8.674636
861.000000 10.916955
862.000000 10.883728
863.000000 21.706407
864.000000 21.815977
865.000000 10.926124
866.000000 8.682818
867.000000 17.463954
868.000000 15.277196
869.000000 12.029781
870.000000 16.299239
871.000000 17.443516
872.000000 14.097846
873.000000 12.009331
874.000000 7.620595
875.000000 7.627654
876.000000 10.884110
877.000000 19.548673
878.000000 11.921767
879.000000 15.258150
880.000000 6.501497
881.000000 6.530468
882.000000 7.586928
883.000000 7.676048
884.000000 16.311782
885.000000 9.823240
886.000000 15.216784
887.000000 16.242108
888.000000 13.016694
889.000000 8.710456
890.000000 16.405945
891.000000 16.379294
892.000000 10.869072
893.000000 9.763114
894.000000 15.256909
895.000000 9.857054
896.000000 18.534381
897.000000 15.261967
898.000000 16.270989
899.000000 14.140575
900.000000 19.768321
901.000000 10.896076
902.000000 16.435382
903.000000 13.064025
904.000000 12.949358
905.000000 6.530514
906.000000 10.946586
907.000000 16.339964
908.000000 15.249597
909.000000 17.386080
910.000000 12.018016
911.000000 17.335638
912.000000 19.566797
913.000000 16.305285
914.000000 17.497462
915.000000 16.398392
916.000000 13.045496
917.000000 14.242047
918.000000 7.665441
919.000000 15.210331
920.000000 16.418110
921.000000 9.810151
922.000000 15.207661
923.000000 9.823561
924.000000 12.986661
925.000000 8.711366
926.000000 13.043956
927.000000 11.914692
928.000000 16.264765
929.000000 10.880432
930.000000 17.483766
931.000000 13.066137
932.000000 18.515156
933.000000 13.028727
934.000000 11.994980
935.000000 7.642748
936.000000 19.633752
937.000000 8.694311
938.000000 9.761182
939.000000 18.442030
940.000000 10.862914
941.000000 12.002232
942.000000 13.054774
943.000000 14.200757
944.000000 14.313233
945.000000 10.928063
946.000000 21.799839
947.000000 14.130387
948.000000 8.675855
949.000000 16.215629
950.000000 15.250579
951.000000 17.392967
952.000000 9.832691
953.000000 15.171114
954.000000 10.883912
955.000000 4.388403
956.000000 15.287469
957.000000 16.288226
958.000000 10.883746
959.000000 12.996158
960.000000 11.953540
961.000000 6.526233
962.000000 17.482027
963.000000 5.464692
964.000000 21.791806
965.000000 13.121153
966.000000 15.208470
967.000000 15.143199
968.000000 10.904450
969.000000 16.432433
970.000000 12.996291
971.000000 11.896239
972.000000 13.064064
973.000000 6.528645
974.000000 13.034083
975.000000 10.822830
976.000000 8.719246
977.000000 12.027368
978.000000 13.075386
979.000000 9.791806
980.000000 14.100990
981.000000 17.463883
982.000000 20.597293
983.000000 10.824526
984.000000 7.651030
985.000000 9.764373
986.000000 10.851482
987.000000 11.970923
988.000000 9.858387
989.000000 14.011132
990.000000 11.978668
991.000000 12.034231
992.000000 15.162839
993.000000 15.261325
994.000000 20.644413
995.000000 9.821049
996.000000 7.614000
997.000000 12.010403
998.000000 7.642022
999.000000 18.562693
1000.000000 18.510848
1001.000000 17.433301
1002.000000 20.648345
1003.000000 19.552529
1004.000000 16.373356
1005.000000 37.223454
1006.000000 21.872812
1007.000000 32.639357
1008.000000 40.473106
1009.000000 72.862614
1010.000000 60.740465
1011.000000 70.178975
1012.000000 53.638082
1013.000000 142.461199
1014.000000 18.416177
1015.000000 10.912926
1016.000000 32.615482
1017.000000 15.252114
1018.000000 19.606567
1019.000000 22.827287
1020.000000 32.612718
1021.000000 28.299616
1022.000000 18.399153
1023.000000 14.112881
1024.000000 16.434864
1025.000000 19.581214
1026.000000 21.707560
1027.000000 17.319434
1028.000000 20.651866
1029.000000 9.863376
1030.000000 11.987899
1031.000000 15.251226
1032.000000 17.514890
1033.000000 13.057158
1034.000000 9.826700
1035.000000 7.584110
1036.000000 19.683159
1037.000000 17.435857
1038.000000 15.198521
1039.000000 17.526351
1040.000000 16.364071
1041.000000 13.063734
1042.000000 13.991044
1043.000000 17.443207
1044.000000 10.921734
1045.000000 11.994803
1046.000000 13.159607
1047.000000 16.301876
1048.000000 9.843281
1049.000000 11.876000
1050.000000 4.370680
1051.000000 12.000769
1052.000000 17.371109
1053.000000 9.749445
1054.000000 8.704722
1055.000000 6.534114
1056.000000 14.168762
1057.000000 13.028031
1058.000000 12.990328
1059.000000 14.239410
1060.000000 16.243499
1061.000000 9.828968
1062.000000 11.951081
1063.000000 14.126484
1064.000000 7.604802
1065.000000 8.677692
1066.000000 8.724615
1067.000000 9.732938
1068.000000 17.446626
1069.000000 7.590010
1070.000000 14.125792
1071.000000 11.977127
1072.000000 17.304480
1073.000000 10.867368
1074.000000 13.073858
1075.000000 10.900368
1076.000000 9.845237
1077.000000 8.680844
1078.000000 7.660831
1079.000000 15.212145
1080.000000 8.708098
1081.000000 19.499238
1082.000000 13.041894
1083.000000 18.488876
1084.000000 7.627860
1085.000000 18.560498
1086.000000 16.256418
1087.000000 15.206059
1088.000000 15.174392
1089.000000 9.788075
1090.000000 11.929611
1091.000000 15.099360
1092.000000 12.966269
1093.000000 11.905472
1094.000000 14.179724
1095.000000 13.067084
1096.000000 13.062854
1097.000000 11.933355
1098.000000 10.842004
1099.000000 16.239264
1100.000000 17.401782
1101.000000 7.625560
1102.000000 11.861081
1103.000000 18.562096
1104.000000 6.480665
1105.000000 10.858784
1106.000000 13.083088
1107.000000 16.366007
1108.000000 11.943434
1109.000000 15.217955
1110.000000 18.452095
1111.000000 13.154030
1112.000000 14.120094
1113.000000 8.668703
1114.000000 15.184609
1115.000000 16.309536
1116.000000 15.207931
1117.000000 9.751925
1118.000000 8.670300
1119.000000 18.507279
1120.000000 10.861816
1121.000000 6.525119
1122.000000 15.156200
1123.000000 7.662815
1124.000000 14.170359
1125.000000 15.201448
1126.000000 6.549323
1127.000000 10.888922
1128.000000 12.987515
1129.000000 12.020430
1130.000000 10.955970
1131.000000 18.579579
1132.000000 5.460581
1133.000000 10.871353
1134.000000 10.875864
1135.000000 16.310219
1136.000000 15.242732
1137.000000 14.122075
1138.000000 14.233077
1139.000000 17.437960
1140.000000 13.066383
1141.000000 12.059850
1142.000000 13.137633
1143.000000 15.238059
1144.000000 15.171486
1145.000000 15.268181
1146.000000 20.646749
1147.000000 19.542382
1148.000000 9.792294
1149.000000 9.740684
1150.000000 17.311343
1151.000000 17.385677
1152.000000 14.141812
1153.000000 19.733106
1154.000000 18.531448
1155.000000 13.001102
1156.000000 17.499694
1157.000000 13.058688
1158.000000 15.285213
1159.000000 9.786054
1160.000000 9.808440
1161.000000 9.857257
1162.000000 17.334260
1163.000000 18.563269
1164.000000 11.929121
1165.000000 12.995173
1166.000000 10.923805
1167.000000 15.184797
1168.000000 13.074367
1169.000000 11.976918
1170.000000 11.990119
1171.000000 17.316852
1172.000000 16.293831
1173.000000 10.885728
1174.000000 17.396516
1175.000000 22.888788
1176.000000 9.823316
1177.000000 9.799542
1178.000000 13.032999
1179.000000 15.141447
1180.000000 13.000337
1181.000000 11.885313
1182.000000 15.245732
1183.000000 10.798547
1184.000000 13.059119
1185.000000 16.368536
1186.000000 14.053392
1187.000000 18.487257
1188.000000 15.260766
1189.000000 16.337475
1190.000000 8.702385
1191.000000 12.983268
1192.000000 14.143145
1193.000000 27.074188
1194.000000 9.812055
1195.000000 14.191369
1196.000000 16.284897
1197.000000 14.138933
1198.000000 15.094611
1199.000000 13.130590
1200.000000 15.253047
1201.000000 18.360262
1202.000000 20.539325
1203.000000 11.987217
1204.000000 9.699254
1205.000000 14.235995
1206.000000 19.402429
1207.000000 16.362256
1208.000000 7.617479
1209.000000 16.308899
1210.000000 17.386662
1211.000000 10.871930
1212.000000 16.228903
1213.000000 20.655210
1214.000000 18.490983
1215.000000 19.674749
1216.000000 20.555138
1217.000000 10.808327
1218.000000 11.931767
1219.000000 13.104702
1220.000000 7.570985
1221.000000 18.464108
1222.000000 9.754731
1223.000000 12.916014
1224.000000 12.019651
1225.000000 12.999774
1226.000000 15.136615
1227.000000 17.318874
1228.000000 9.705851
1229.000000 13.128478
1230.000000 9.813991
1231.000000 22.653035
1232.000000 18.481150
1233.000000 16.253681
1234.000000 16.312516
1235.000000 8.672362
1236.000000 14.155876
1237.000000 13.041277
1238.000000 10.878225
1239.000000 13.058872
1240.000000 12.947977
1241.000000 10.817097
1242.000000 11.926710
1243.000000 10.834747
1244.000000 13.002205
1245.000000 11.859724
1246.000000 15.081302
1247.000000 15.191872
1248.000000 10.842317
1249.000000 14.083463
1250.000000 11.986468
1251.000000 14.100584
1252.000000 18.407217
1253.000000 15.126660
1254.000000 15.155982
1255.000000 21.702303
1256.000000 8.709046
1257.000000 14.150383
1258.000000 11.948386
1259.000000 17.449165
1260.000000 14.106472
1261.000000 11.970338
1262.000000 14.017306
1263.000000 16.355329
1264.000000 9.770216
1265.000000 14.095929
1266.000000 6.526903
1267.000000 16.330656
1268.000000 14.079589
1269.000000 18.612796
1270.000000 12.996844
1271.000000 14.039118
1272.000000 19.422541
1273.000000 15.118599
1274.000000 11.898657
1275.000000 15.110863
1276.000000 15.122326
1277.000000 7.624006
1278.000000 8.696457
1279.000000 12.979695
1280.000000 17.379120
1281.000000 16.235316
1282.000000 14.083290
1283.000000 6.516030
1284.000000 8.638006
1285.000000 13.041027
1286.000000 11.890542
1287.000000 15.126489
1288.000000 12.931450
1289.000000 20.762676
1290.000000 19.609711
1291.000000 14.183382
1292.000000 15.132996
1293.000000 18.385395
1294.000000 14.061318
1295.000000 11.826460
1296.000000 10.910754
1297.000000 16.250521
1298.000000 14.119674
1299.000000 16.274368
