# Left column = Time after Trigger in seconds & Right column = # Counts / Exposure = Flux per cm² s
700.000000 3.240655
701.000000 6.427166
702.000000 4.300142
703.000000 9.636908
704.000000 6.462229
705.000000 6.447264
706.000000 5.376782
707.000000 8.640009
708.000000 7.490565
709.000000 8.605830
710.000000 3.236589
711.000000 5.365848
712.000000 11.814991
713.000000 4.303678
714.000000 3.229169
715.000000 3.220279
716.000000 5.381781
717.000000 5.390149
718.000000 7.549567
719.000000 7.562372
720.000000 8.568528
721.000000 9.631524
722.000000 7.527479
723.000000 2.152173
724.000000 8.645721
725.000000 8.606072
726.000000 9.658808
727.000000 9.747448
728.000000 6.413119
729.000000 11.815586
730.000000 5.361337
731.000000 7.566457
732.000000 8.559346
733.000000 2.153520
734.000000 6.450638
735.000000 4.299245
736.000000 6.454187
737.000000 12.920338
738.000000 3.232222
739.000000 6.444414
740.000000 14.078953
741.000000 2.148889
742.000000 2.162876
743.000000 6.421238
744.000000 6.508758
745.000000 3.215233
746.000000 5.340338
747.000000 15.030001
748.000000 6.426868
749.000000 6.443230
750.000000 4.311928
751.000000 5.357524
752.000000 6.475538
753.000000 5.344197
754.000000 10.750642
755.000000 4.289880
756.000000 6.490383
757.000000 6.457283
758.000000 6.467873
759.000000 4.309824
760.000000 3.229051
761.000000 10.688156
762.000000 3.231955
763.000000 4.312014
764.000000 5.370524
765.000000 7.485209
766.000000 6.461012
767.000000 10.715045
768.000000 5.384479
769.000000 5.386527
770.000000 10.741604
771.000000 8.564733
772.000000 6.471524
773.000000 4.296978
774.000000 10.738418
775.000000 6.466114
776.000000 4.300492
777.000000 5.333976
778.000000 5.391919
779.000000 7.531146
780.000000 10.756493
781.000000 6.444031
782.000000 9.657319
783.000000 6.455753
784.000000 5.368654
785.000000 6.442099
786.000000 8.615620
787.000000 4.313346
788.000000 5.355872
789.000000 10.721047
790.000000 3.237690
791.000000 6.439860
792.000000 8.602419
793.000000 8.564441
794.000000 8.613927
795.000000 5.391623
796.000000 10.760979
797.000000 1.071553
798.000000 6.457250
799.000000 3.244828
800.000000 6.432947
801.000000 9.640604
802.000000 7.511130
803.000000 8.626406
804.000000 5.415857
805.000000 9.707913
806.000000 9.660905
807.000000 6.422310
808.000000 5.391419
809.000000 5.385459
810.000000 1.069938
811.000000 9.667612
812.000000 3.212205
813.000000 5.356835
814.000000 5.406529
815.000000 4.310864
816.000000 7.510907
817.000000 8.627632
818.000000 5.348895
819.000000 3.231979
820.000000 6.430131
821.000000 6.475809
822.000000 9.723619
823.000000 8.641024
824.000000 6.448449
825.000000 5.389865
826.000000 1.068989
827.000000 3.244321
828.000000 2.154143
829.000000 12.971458
830.000000 7.493359
831.000000 8.565698
832.000000 10.741689
833.000000 6.461155
834.000000 8.620910
835.000000 11.823431
836.000000 2.164430
837.000000 6.502107
838.000000 3.241575
839.000000 8.579170
840.000000 4.296387
841.000000 5.409291
842.000000 7.557447
843.000000 7.565457
844.000000 11.824687
845.000000 5.365225
846.000000 2.160158
847.000000 7.472909
848.000000 2.142927
849.000000 6.472280
850.000000 4.269174
851.000000 3.214592
852.000000 5.373372
853.000000 3.247610
854.000000 8.632342
855.000000 4.316166
856.000000 8.638837
857.000000 3.218477
858.000000 6.452835
859.000000 8.666857
860.000000 5.360659
861.000000 5.402026
862.000000 1.076842
863.000000 9.695057
864.000000 1.076764
865.000000 5.391161
866.000000 5.363813
867.000000 4.328736
868.000000 5.380876
869.000000 8.634061
870.000000 8.606596
871.000000 5.378300
872.000000 5.387270
873.000000 10.740170
874.000000 7.575786
875.000000 5.400120
876.000000 9.700559
877.000000 4.316542
878.000000 6.452214
879.000000 6.450881
880.000000 7.527155
881.000000 5.358379
882.000000 8.582160
883.000000 9.708549
884.000000 3.220492
885.000000 4.287435
886.000000 11.869721
887.000000 2.142143
888.000000 10.762693
889.000000 5.385120
890.000000 5.413659
891.000000 7.491315
892.000000 12.862010
893.000000 4.298767
894.000000 6.508811
895.000000 4.307300
896.000000 8.607174
897.000000 7.511372
898.000000 7.556815
899.000000 6.455890
900.000000 4.293716
901.000000 5.355702
902.000000 7.529699
903.000000 10.753038
904.000000 9.682306
905.000000 4.321661
906.000000 4.302839
907.000000 4.297937
908.000000 11.886366
909.000000 6.463214
910.000000 5.376605
911.000000 2.147417
912.000000 7.608924
913.000000 4.298618
914.000000 3.244323
915.000000 6.466369
916.000000 5.355688
917.000000 6.519305
918.000000 5.367284
919.000000 5.331615
920.000000 9.660505
921.000000 4.307140
922.000000 8.665531
923.000000 7.598126
924.000000 11.907273
925.000000 6.469341
926.000000 5.364703
927.000000 8.587370
928.000000 7.532805
929.000000 5.390004
930.000000 3.233748
931.000000 7.569963
932.000000 10.767284
933.000000 5.392486
934.000000 4.320422
935.000000 5.398237
936.000000 6.464658
937.000000 7.501279
938.000000 8.650748
939.000000 5.404546
940.000000 2.145035
941.000000 6.476563
942.000000 7.541423
943.000000 7.547402
944.000000 5.377922
945.000000 7.484472
946.000000 5.417453
947.000000 6.448045
948.000000 8.602716
949.000000 7.494252
950.000000 5.408737
951.000000 10.820716
952.000000 6.500840
953.000000 3.215204
954.000000 7.513398
955.000000 7.529721
956.000000 13.937445
957.000000 0.000000
958.000000 5.399662
959.000000 8.668427
960.000000 4.310168
961.000000 1.088444
962.000000 7.554746
963.000000 5.363414
964.000000 8.610866
965.000000 8.590009
966.000000 5.372531
967.000000 2.173140
968.000000 7.558815
969.000000 3.239761
970.000000 6.532194
971.000000 7.532349
972.000000 7.573370
973.000000 6.449523
974.000000 2.153614
975.000000 6.477347
976.000000 4.312724
977.000000 4.321415
978.000000 5.402123
979.000000 3.233792
980.000000 6.455046
981.000000 2.149434
982.000000 2.156341
983.000000 5.415589
984.000000 5.388033
985.000000 3.243411
986.000000 6.461702
987.000000 12.917921
988.000000 2.144588
989.000000 6.445913
990.000000 4.302364
991.000000 4.301758
992.000000 5.426365
993.000000 7.580458
994.000000 6.501041
995.000000 6.446379
996.000000 10.781404
997.000000 7.535422
998.000000 7.555767
999.000000 7.570011
1000.000000 44.092071
1001.000000 5.405424
1002.000000 4.333224
1003.000000 10.855533
1004.000000 9.693560
1005.000000 3.226991
1006.000000 8.603550
1007.000000 6.473317
1008.000000 3.236142
1009.000000 6.473694
1010.000000 5.408494
1011.000000 5.388246
1012.000000 8.672570
1013.000000 7.529165
1014.000000 7.547364
1015.000000 7.558535
1016.000000 5.405638
1017.000000 7.553493
1018.000000 14.159914
1019.000000 5.419882
1020.000000 8.694579
1021.000000 1.079064
1022.000000 4.308576
1023.000000 5.378275
1024.000000 3.208327
1025.000000 4.295723
1026.000000 7.523859
1027.000000 6.442598
1028.000000 9.695333
1029.000000 7.532572
1030.000000 6.459839
1031.000000 8.654126
1032.000000 7.528457
1033.000000 7.587060
1034.000000 2.151789
1035.000000 10.816400
1036.000000 5.382968
1037.000000 9.700639
1038.000000 4.326492
1039.000000 6.485358
1040.000000 6.448910
1041.000000 6.462619
1042.000000 1.076747
1043.000000 7.532663
1044.000000 3.229865
1045.000000 4.281048
1046.000000 4.340811
1047.000000 3.223633
1048.000000 8.592057
1049.000000 5.378425
1050.000000 7.533868
1051.000000 7.558347
1052.000000 8.646276
1053.000000 7.528532
1054.000000 11.968814
1055.000000 7.591110
1056.000000 6.461223
1057.000000 7.497017
1058.000000 4.329377
1059.000000 4.314082
1060.000000 5.383611
1061.000000 7.599882
1062.000000 4.380308
1063.000000 10.846370
1064.000000 4.331854
1065.000000 5.409476
1066.000000 6.472799
1067.000000 4.337962
1068.000000 3.237216
1069.000000 6.506025
1070.000000 4.337486
1071.000000 4.313730
1072.000000 6.489906
1073.000000 4.313780
1074.000000 5.404381
1075.000000 2.180451
1076.000000 5.426619
1077.000000 4.302739
1078.000000 3.238465
1079.000000 5.405963
1080.000000 5.421783
1081.000000 4.324777
1082.000000 6.472179
1083.000000 7.605461
1084.000000 12.849943
1085.000000 9.727937
1086.000000 6.542885
1087.000000 14.063679
1088.000000 10.886786
1089.000000 4.324175
1090.000000 8.654822
1091.000000 4.349147
1092.000000 10.761757
1093.000000 5.383173
1094.000000 10.862529
1095.000000 5.404019
1096.000000 3.274023
1097.000000 6.525836
1098.000000 2.173079
1099.000000 9.711104
1100.000000 9.702302
1101.000000 11.898881
1102.000000 8.701315
1103.000000 4.332110
1104.000000 11.934971
1105.000000 7.617939
1106.000000 4.345699
1107.000000 7.573600
1108.000000 5.387084
1109.000000 11.875032
1110.000000 10.876536
1111.000000 7.595159
1112.000000 8.689679
1113.000000 5.423588
1114.000000 6.488616
1115.000000 7.555558
1116.000000 5.470778
1117.000000 10.837770
1118.000000 4.348525
1119.000000 8.695711
1120.000000 3.272475
1121.000000 6.510971
1122.000000 8.682789
1123.000000 7.617582
1124.000000 7.650627
1125.000000 6.484895
1126.000000 10.856714
1127.000000 7.601614
1128.000000 8.683138
1129.000000 7.586624
1130.000000 8.690617
1131.000000 2.165467
1132.000000 6.535631
1133.000000 6.466584
1134.000000 8.719129
1135.000000 4.327010
1136.000000 10.820194
1137.000000 7.594260
1138.000000 5.432499
1139.000000 9.777856
1140.000000 3.256896
1141.000000 8.693701
1142.000000 8.796909
1143.000000 4.368401
1144.000000 8.718855
1145.000000 5.454928
1146.000000 4.351721
1147.000000 5.438352
1148.000000 3.236901
1149.000000 7.601784
1150.000000 8.735198
1151.000000 4.345914
1152.000000 4.368758
1153.000000 6.519448
1154.000000 5.418165
1155.000000 9.749979
1156.000000 1.088132
1157.000000 3.257194
1158.000000 8.675199
1159.000000 5.435936
1160.000000 7.655268
1161.000000 6.565854
1162.000000 3.278139
1163.000000 8.675463
1164.000000 6.496420
1165.000000 8.645905
1166.000000 10.876821
1167.000000 8.662080
1168.000000 2.180406
1169.000000 6.521557
1170.000000 13.145692
1171.000000 5.441351
1172.000000 5.444540
1173.000000 8.687242
1174.000000 7.642330
1175.000000 3.261981
1176.000000 4.356357
1177.000000 4.351051
1178.000000 10.829340
1179.000000 4.333080
1180.000000 3.275814
1181.000000 12.024944
1182.000000 11.971024
1183.000000 7.599350
1184.000000 8.631630
1185.000000 11.996614
1186.000000 7.584829
1187.000000 7.601161
1188.000000 9.857804
1189.000000 7.600842
1190.000000 5.456474
1191.000000 6.552449
1192.000000 8.710319
1193.000000 9.835092
1194.000000 9.843326
1195.000000 12.996243
1196.000000 7.641123
1197.000000 6.517278
1198.000000 7.608056
1199.000000 9.868404
1200.000000 6.507544
1201.000000 7.592137
1202.000000 9.810998
1203.000000 4.400362
1204.000000 13.072244
1205.000000 5.478912
1206.000000 6.513672
1207.000000 6.514416
1208.000000 3.256770
1209.000000 6.552044
1210.000000 9.834884
1211.000000 6.566918
1212.000000 5.427419
1213.000000 5.447747
1214.000000 6.546801
1215.000000 12.044851
1216.000000 7.603546
1217.000000 7.627197
1218.000000 6.570497
1219.000000 7.624653
1220.000000 5.460000
1221.000000 8.741947
1222.000000 3.295557
1223.000000 6.520171
1224.000000 4.398935
1225.000000 7.583922
1226.000000 6.547090
1227.000000 13.058153
1228.000000 7.622592
1229.000000 5.439529
1230.000000 6.550578
1231.000000 19.592001
1232.000000 14.109536
1233.000000 7.605427
1234.000000 18.552646
1235.000000 8.663059
1236.000000 5.452539
1237.000000 6.580782
1238.000000 7.630901
1239.000000 6.547041
1240.000000 7.625270
1241.000000 3.265365
1242.000000 5.466176
1243.000000 9.841572
1244.000000 6.558463
1245.000000 6.553780
1246.000000 1.089794
1247.000000 3.272557
1248.000000 7.664127
1249.000000 3.297112
1250.000000 4.321247
1251.000000 4.352549
1252.000000 9.821051
1253.000000 13.084981
1254.000000 7.612191
1255.000000 7.644263
1256.000000 1.092872
1257.000000 8.690447
1258.000000 9.785368
1259.000000 9.774608
1260.000000 4.392927
1261.000000 8.792413
1262.000000 7.605979
1263.000000 8.646672
1264.000000 2.166642
1265.000000 5.446221
1266.000000 5.442021
1267.000000 8.693630
1268.000000 2.183039
1269.000000 3.258191
1270.000000 7.592521
1271.000000 10.878224
1272.000000 8.662738
1273.000000 3.273855
1274.000000 9.904711
1275.000000 4.363037
1276.000000 6.515886
1277.000000 4.341056
1278.000000 10.833058
1279.000000 10.830863
1280.000000 6.519657
1281.000000 7.616905
1282.000000 5.451382
1283.000000 7.704014
1284.000000 14.298537
1285.000000 8.635022
1286.000000 4.335116
1287.000000 6.558127
1288.000000 8.787394
1289.000000 4.366108
1290.000000 6.530739
1291.000000 4.388777
1292.000000 7.661430
1293.000000 5.424714
1294.000000 7.652854
1295.000000 2.187196
1296.000000 6.557227
1297.000000 9.821333
1298.000000 1.090308
1299.000000 7.701353
