# Left column = Time after Trigger in seconds & Right column = # Counts / Exposure = Flux per cm² s
700.000000 0.000000
701.000000 0.000000
702.000000 0.000000
703.000000 0.000000
704.000000 0.000000
705.000000 0.000000
706.000000 0.000000
707.000000 0.000000
708.000000 0.000000
709.000000 0.000000
710.000000 0.000000
711.000000 0.000000
712.000000 0.000000
713.000000 0.000000
714.000000 0.000000
715.000000 0.000000
716.000000 0.000000
717.000000 0.000000
718.000000 0.000000
719.000000 0.000000
720.000000 0.000000
721.000000 0.000000
722.000000 0.000000
723.000000 0.000000
724.000000 0.000000
725.000000 0.000000
726.000000 0.000000
727.000000 0.000000
728.000000 0.000000
729.000000 0.000000
730.000000 0.000000
731.000000 0.000000
732.000000 0.000000
733.000000 0.000000
734.000000 0.000000
735.000000 0.000000
736.000000 0.000000
737.000000 0.000000
738.000000 0.000000
739.000000 0.000000
740.000000 0.000000
741.000000 0.000000
742.000000 0.000000
743.000000 0.000000
744.000000 0.000000
745.000000 0.000000
746.000000 0.000000
747.000000 0.000000
748.000000 0.000000
749.000000 0.000000
750.000000 0.000000
751.000000 0.000000
752.000000 0.000000
753.000000 0.000000
754.000000 0.000000
755.000000 0.000000
756.000000 0.000000
757.000000 0.000000
758.000000 0.000000
759.000000 0.000000
760.000000 0.000000
761.000000 0.000000
762.000000 0.000000
763.000000 0.000000
764.000000 0.000000
765.000000 0.000000
766.000000 0.000000
767.000000 0.000000
768.000000 0.000000
769.000000 0.000000
770.000000 0.000000
771.000000 0.000000
772.000000 0.000000
773.000000 0.000000
774.000000 0.000000
775.000000 0.000000
776.000000 0.000000
777.000000 0.000000
778.000000 1.101569
779.000000 0.000000
780.000000 0.000000
781.000000 1.095603
782.000000 0.000000
783.000000 1.092388
784.000000 0.000000
785.000000 0.000000
786.000000 0.000000
787.000000 0.000000
788.000000 0.000000
789.000000 0.000000
790.000000 2.196904
791.000000 0.000000
792.000000 0.000000
793.000000 1.098565
794.000000 0.000000
795.000000 0.000000
796.000000 0.000000
797.000000 0.000000
798.000000 0.000000
799.000000 1.100174
800.000000 1.110024
801.000000 1.095727
802.000000 0.000000
803.000000 0.000000
804.000000 1.094925
805.000000 0.000000
806.000000 1.100935
807.000000 3.332059
808.000000 1.104154
809.000000 3.296519
810.000000 1.101475
811.000000 1.094569
812.000000 3.325371
813.000000 2.199611
814.000000 0.000000
815.000000 1.089730
816.000000 3.304547
817.000000 1.099961
818.000000 1.098819
819.000000 2.189815
820.000000 3.330402
821.000000 0.000000
822.000000 0.000000
823.000000 4.396408
824.000000 2.196268
825.000000 2.209043
826.000000 1.102035
827.000000 0.000000
828.000000 0.000000
829.000000 2.205208
830.000000 4.419161
831.000000 1.095224
832.000000 4.386762
833.000000 2.190007
834.000000 1.097659
835.000000 4.422542
836.000000 4.385139
837.000000 4.437754
838.000000 5.484448
839.000000 4.418467
840.000000 3.303321
841.000000 7.715018
842.000000 8.781631
843.000000 2.204426
844.000000 4.404726
845.000000 4.420439
846.000000 2.222158
847.000000 3.292466
848.000000 4.435736
849.000000 5.537353
850.000000 4.365299
851.000000 5.525142
852.000000 3.303456
853.000000 1.099161
854.000000 3.303973
855.000000 5.478051
856.000000 3.266089
857.000000 7.721385
858.000000 7.690471
859.000000 2.208489
860.000000 4.432823
861.000000 3.312901
862.000000 7.712210
863.000000 3.295657
864.000000 3.297103
865.000000 9.903006
866.000000 8.858878
867.000000 5.482032
868.000000 12.005948
869.000000 6.622714
870.000000 3.283016
871.000000 8.790470
872.000000 3.304969
873.000000 7.722070
874.000000 3.300111
875.000000 3.292432
876.000000 7.660374
877.000000 6.591522
878.000000 8.809610
879.000000 7.730146
880.000000 8.751555
881.000000 5.471685
882.000000 4.395700
883.000000 4.392664
884.000000 2.194363
885.000000 4.371903
886.000000 8.798754
887.000000 4.363200
888.000000 6.560936
889.000000 14.277240
890.000000 6.641900
891.000000 12.056237
892.000000 7.711619
893.000000 11.028692
894.000000 4.397595
895.000000 7.741685
896.000000 6.558779
897.000000 4.360329
898.000000 9.845219
899.000000 5.530402
900.000000 6.612786
901.000000 5.528346
902.000000 9.904421
903.000000 9.861988
904.000000 1.094774
905.000000 10.943028
906.000000 5.487296
907.000000 5.548447
908.000000 4.374430
909.000000 5.478174
910.000000 8.800970
911.000000 7.643267
912.000000 13.207698
913.000000 9.805771
914.000000 4.405180
915.000000 8.796475
916.000000 15.533932
917.000000 13.184850
918.000000 9.909886
919.000000 8.775382
920.000000 7.713904
921.000000 10.865224
922.000000 8.726721
923.000000 6.622968
924.000000 10.940259
925.000000 12.170429
926.000000 14.212282
927.000000 3.293981
928.000000 12.007474
929.000000 13.130701
930.000000 11.966398
931.000000 11.045827
932.000000 7.706480
933.000000 15.406758
934.000000 8.754272
935.000000 9.866420
936.000000 6.583835
937.000000 11.025984
938.000000 13.129050
939.000000 7.709981
940.000000 13.101273
941.000000 3.297126
942.000000 11.985685
943.000000 10.971305
944.000000 1.101715
945.000000 13.131552
946.000000 9.884574
947.000000 6.565004
948.000000 10.951521
949.000000 7.664550
950.000000 7.719745
951.000000 12.086863
952.000000 9.882793
953.000000 9.872634
954.000000 15.311389
955.000000 8.713262
956.000000 13.169151
957.000000 7.751622
958.000000 13.104454
959.000000 6.580906
960.000000 11.053513
961.000000 21.815695
962.000000 7.599844
963.000000 9.777880
964.000000 5.418087
965.000000 12.092289
966.000000 10.953468
967.000000 15.283289
968.000000 8.759074
969.000000 7.729076
970.000000 6.566302
971.000000 10.951290
972.000000 8.799671
973.000000 16.380010
974.000000 9.927954
975.000000 5.462897
976.000000 10.928469
977.000000 8.772915
978.000000 6.528984
979.000000 14.215428
980.000000 9.847000
981.000000 6.566909
982.000000 10.886083
983.000000 10.949264
984.000000 11.994504
985.000000 12.009215
986.000000 12.079770
987.000000 9.893091
988.000000 13.165563
989.000000 16.426199
990.000000 8.812599
991.000000 11.964535
992.000000 10.963212
993.000000 13.157202
994.000000 9.857605
995.000000 5.480646
996.000000 8.707459
997.000000 5.480078
998.000000 5.477617
999.000000 5.449820
1000.000000 25.380766
1001.000000 38.085229
1002.000000 35.044848
1003.000000 27.335167
1004.000000 30.855299
1005.000000 30.742308
1006.000000 13.092816
1007.000000 13.167357
1008.000000 12.008435
1009.000000 12.015682
1010.000000 9.814484
1011.000000 13.023742
1012.000000 11.979835
1013.000000 8.707579
1014.000000 13.106075
1015.000000 8.751798
1016.000000 10.848475
1017.000000 16.268847
1018.000000 13.100183
1019.000000 8.708546
1020.000000 5.489134
1021.000000 8.659694
1022.000000 9.844351
1023.000000 11.969378
1024.000000 6.555426
1025.000000 5.467013
1026.000000 9.791138
1027.000000 11.941995
1028.000000 8.724513
1029.000000 15.330818
1030.000000 13.029800
1031.000000 13.042343
1032.000000 18.662093
1033.000000 16.316770
1034.000000 6.539977
1035.000000 7.582516
1036.000000 15.161843
1037.000000 11.898793
1038.000000 6.540618
1039.000000 7.609746
1040.000000 13.002111
1041.000000 7.567375
1042.000000 8.695368
1043.000000 7.627774
1044.000000 8.756654
1045.000000 10.859737
1046.000000 15.269640
1047.000000 11.974166
1048.000000 11.940391
1049.000000 10.847775
1050.000000 12.954721
1051.000000 7.637240
1052.000000 16.275306
1053.000000 6.609596
1054.000000 9.725798
1055.000000 4.371445
1056.000000 8.636866
1057.000000 16.186748
1058.000000 12.994832
1059.000000 10.918445
1060.000000 5.446979
1061.000000 15.184801
1062.000000 14.128109
1063.000000 6.465588
1064.000000 10.837844
1065.000000 3.255073
1066.000000 6.524186
1067.000000 4.312454
1068.000000 15.185517
1069.000000 9.711382
1070.000000 13.052752
1071.000000 9.767882
1072.000000 9.829498
1073.000000 12.969041
1074.000000 10.809081
1075.000000 9.837186
1076.000000 6.464083
1077.000000 8.702649
1078.000000 8.670933
1079.000000 8.778069
1080.000000 7.606102
1081.000000 7.574722
1082.000000 13.051913
1083.000000 7.601621
1084.000000 8.671884
1085.000000 9.716339
1086.000000 10.812541
1087.000000 6.457330
1088.000000 9.722500
1089.000000 5.444794
1090.000000 4.320681
1091.000000 10.786947
1092.000000 9.717230
1093.000000 8.723971
1094.000000 8.688317
1095.000000 8.737410
1096.000000 5.428862
1097.000000 6.513216
1098.000000 10.838857
1099.000000 8.691550
1100.000000 10.818515
1101.000000 10.848168
1102.000000 6.538435
1103.000000 3.230885
1104.000000 5.407147
1105.000000 10.786355
1106.000000 10.834375
1107.000000 8.649347
1108.000000 10.863872
1109.000000 10.821720
1110.000000 10.849411
1111.000000 11.855343
1112.000000 9.731986
1113.000000 11.885718
1114.000000 9.831110
1115.000000 8.685408
1116.000000 10.856293
1117.000000 16.147928
1118.000000 16.277919
1119.000000 9.754144
1120.000000 9.762916
1121.000000 11.974271
1122.000000 13.024107
1123.000000 8.655727
1124.000000 10.817830
1125.000000 10.788811
1126.000000 3.235368
1127.000000 6.521825
1128.000000 6.497502
1129.000000 11.856517
1130.000000 5.379208
1131.000000 9.748501
1132.000000 10.806008
1133.000000 3.252337
1134.000000 8.600268
1135.000000 10.829015
1136.000000 9.781904
1137.000000 9.731086
1138.000000 13.038597
1139.000000 8.698355
1140.000000 2.166443
1141.000000 6.436369
1142.000000 15.124924
1143.000000 11.867528
1144.000000 9.703045
1145.000000 12.995964
1146.000000 9.654517
1147.000000 6.453225
1148.000000 7.524783
1149.000000 13.005347
1150.000000 10.848416
1151.000000 16.222185
1152.000000 11.887496
1153.000000 6.485087
1154.000000 6.503498
1155.000000 7.534858
1156.000000 10.846486
1157.000000 9.724911
1158.000000 10.829052
1159.000000 10.859653
1160.000000 8.664225
1161.000000 4.343143
1162.000000 10.750690
1163.000000 6.487635
1164.000000 15.167534
1165.000000 12.962256
1166.000000 7.592478
1167.000000 4.342865
1168.000000 13.012457
1169.000000 9.693811
1170.000000 5.384805
1171.000000 7.596828
1172.000000 8.615743
1173.000000 14.006754
1174.000000 16.203330
1175.000000 6.482623
1176.000000 5.386177
1177.000000 12.951501
1178.000000 12.921097
1179.000000 9.709944
1180.000000 15.217351
1181.000000 20.653870
1182.000000 7.609383
1183.000000 6.468570
1184.000000 9.701246
1185.000000 6.455715
1186.000000 5.391370
1187.000000 8.745259
1188.000000 12.985723
1189.000000 10.816763
1190.000000 5.411281
1191.000000 5.415644
1192.000000 3.237514
1193.000000 11.951051
1194.000000 7.550121
1195.000000 7.553576
1196.000000 14.013895
1197.000000 10.760209
1198.000000 5.391288
1199.000000 6.473814
1200.000000 7.597693
1201.000000 13.024226
1202.000000 10.837554
1203.000000 8.648589
1204.000000 7.528521
1205.000000 10.862057
1206.000000 10.778691
1207.000000 17.251605
1208.000000 5.445433
1209.000000 6.519835
1210.000000 9.722417
1211.000000 9.738235
1212.000000 5.422893
1213.000000 10.810751
1214.000000 13.973392
1215.000000 11.908927
1216.000000 10.845939
1217.000000 19.482585
1218.000000 9.720210
1219.000000 6.443452
1220.000000 4.325363
1221.000000 6.505185
1222.000000 13.950816
1223.000000 3.244488
1224.000000 10.791912
1225.000000 5.394609
1226.000000 16.238204
1227.000000 15.071928
1228.000000 12.914586
1229.000000 4.310411
1230.000000 6.550073
1231.000000 12.966085
1232.000000 7.557695
1233.000000 8.611002
1234.000000 7.595683
1235.000000 4.327649
1236.000000 4.316441
1237.000000 6.472289
1238.000000 14.039331
1239.000000 9.730542
1240.000000 9.671163
1241.000000 7.548382
1242.000000 11.883267
1243.000000 10.826704
1244.000000 13.024272
1245.000000 10.779767
1246.000000 8.581131
1247.000000 9.686572
1248.000000 6.494532
1249.000000 6.498855
1250.000000 6.492417
1251.000000 5.386031
1252.000000 11.861698
1253.000000 7.536649
1254.000000 14.107387
1255.000000 11.900943
1256.000000 12.941558
1257.000000 5.373529
1258.000000 4.352539
1259.000000 18.386611
1260.000000 13.010133
1261.000000 10.866090
1262.000000 10.803596
1263.000000 15.158149
1264.000000 11.873211
1265.000000 9.723329
1266.000000 10.867825
1267.000000 8.590989
1268.000000 6.458628
1269.000000 4.296325
1270.000000 8.655657
1271.000000 9.706959
1272.000000 10.782645
1273.000000 17.325789
1274.000000 11.882278
1275.000000 11.922819
1276.000000 4.317782
1277.000000 9.702699
1278.000000 10.766552
1279.000000 14.024289
1280.000000 14.129047
1281.000000 10.860530
1282.000000 9.702049
1283.000000 9.697925
1284.000000 10.786513
1285.000000 7.596248
1286.000000 4.315080
1287.000000 16.238248
1288.000000 11.882681
1289.000000 8.622941
1290.000000 10.772301
1291.000000 11.892602
1292.000000 10.836857
1293.000000 9.742602
1294.000000 7.558168
1295.000000 8.653158
1296.000000 16.200168
1297.000000 7.564363
1298.000000 10.788955
1299.000000 6.471143
