# Left column = Time after Trigger in seconds & Right column = # Counts / Exposure = Flux per cm² s
700.000000 6.498339
701.000000 12.815583
702.000000 10.758913
703.000000 12.978434
704.000000 10.825635
705.000000 14.959827
706.000000 16.111321
707.000000 7.513986
708.000000 10.746940
709.000000 6.430603
710.000000 5.358952
711.000000 5.364645
712.000000 9.634345
713.000000 10.697854
714.000000 6.428237
715.000000 8.589725
716.000000 12.917813
717.000000 8.532052
718.000000 7.522339
719.000000 13.935401
720.000000 5.353736
721.000000 7.545424
722.000000 11.800489
723.000000 7.504765
724.000000 13.976631
725.000000 10.787975
726.000000 7.504296
727.000000 9.630166
728.000000 10.696844
729.000000 5.363538
730.000000 9.706477
731.000000 8.562256
732.000000 7.500181
733.000000 7.506965
734.000000 10.781040
735.000000 2.142828
736.000000 11.727898
737.000000 3.224236
738.000000 9.690326
739.000000 8.598582
740.000000 11.841761
741.000000 8.598210
742.000000 9.724966
743.000000 9.721188
744.000000 8.631300
745.000000 11.831962
746.000000 11.758581
747.000000 6.447082
748.000000 12.891043
749.000000 13.937659
750.000000 10.699258
751.000000 11.788077
752.000000 8.591598
753.000000 8.597891
754.000000 12.910790
755.000000 9.654309
756.000000 8.517885
757.000000 18.292530
758.000000 7.538315
759.000000 10.758330
760.000000 8.618831
761.000000 15.022607
762.000000 10.826892
763.000000 9.616891
764.000000 10.728198
765.000000 12.858942
766.000000 10.761274
767.000000 2.144437
768.000000 8.608998
769.000000 17.142684
770.000000 8.575659
771.000000 5.402046
772.000000 10.685407
773.000000 5.381655
774.000000 8.641030
775.000000 13.960411
776.000000 8.595521
777.000000 4.322266
778.000000 12.842726
779.000000 12.896759
780.000000 8.579726
781.000000 13.983614
782.000000 9.660978
783.000000 7.504048
784.000000 13.964314
785.000000 6.488902
786.000000 10.756478
787.000000 6.464407
788.000000 10.817074
789.000000 5.414263
790.000000 9.628666
791.000000 1.076688
792.000000 4.291824
793.000000 3.236872
794.000000 6.438271
795.000000 9.637730
796.000000 12.943621
797.000000 9.691096
798.000000 8.609858
799.000000 9.657823
800.000000 12.852440
801.000000 9.645434
802.000000 3.234950
803.000000 8.602167
804.000000 7.496481
805.000000 7.521908
806.000000 8.565940
807.000000 7.560280
808.000000 11.815922
809.000000 5.348111
810.000000 6.470420
811.000000 7.507569
812.000000 6.498238
813.000000 6.418296
814.000000 9.675194
815.000000 9.614182
816.000000 10.747334
817.000000 12.841124
818.000000 8.589946
819.000000 8.554074
820.000000 7.517651
821.000000 5.394884
822.000000 6.431661
823.000000 9.747106
824.000000 12.865565
825.000000 6.473833
826.000000 8.535439
827.000000 10.722479
828.000000 5.380002
829.000000 7.518492
830.000000 15.027349
831.000000 6.446568
832.000000 7.503831
833.000000 15.045871
834.000000 8.574270
835.000000 8.564732
836.000000 10.753693
837.000000 11.821305
838.000000 9.704620
839.000000 10.750851
840.000000 16.114294
841.000000 10.722364
842.000000 15.071405
843.000000 10.703906
844.000000 8.571775
845.000000 7.541791
846.000000 8.579545
847.000000 5.393836
848.000000 7.506798
849.000000 11.858503
850.000000 11.752900
851.000000 11.794407
852.000000 10.781258
853.000000 11.806135
854.000000 9.672946
855.000000 6.429378
856.000000 10.749507
857.000000 9.636963
858.000000 11.732541
859.000000 5.368315
860.000000 7.508535
861.000000 9.647363
862.000000 6.447601
863.000000 3.218463
864.000000 7.488898
865.000000 5.351602
866.000000 11.781792
867.000000 12.933981
868.000000 7.586839
869.000000 5.387438
870.000000 12.937479
871.000000 13.938113
872.000000 3.226187
873.000000 5.377288
874.000000 11.936592
875.000000 8.634755
876.000000 6.443534
877.000000 6.508834
878.000000 11.845671
879.000000 9.723984
880.000000 10.706296
881.000000 9.639368
882.000000 14.962131
883.000000 7.509718
884.000000 6.461148
885.000000 12.877886
886.000000 5.365510
887.000000 6.437418
888.000000 8.587051
889.000000 6.418280
890.000000 3.228817
891.000000 9.643416
892.000000 8.621557
893.000000 8.629403
894.000000 6.410559
895.000000 3.209781
896.000000 8.649962
897.000000 11.832851
898.000000 6.459003
899.000000 8.571585
900.000000 9.732763
901.000000 11.828087
902.000000 8.605609
903.000000 7.522060
904.000000 7.506120
905.000000 5.393577
906.000000 9.670852
907.000000 5.349009
908.000000 5.382025
909.000000 6.482504
910.000000 8.629528
911.000000 8.584438
912.000000 16.131451
913.000000 7.542959
914.000000 6.463734
915.000000 7.513362
916.000000 8.600971
917.000000 9.739374
918.000000 10.747467
919.000000 7.518221
920.000000 12.890863
921.000000 7.524552
922.000000 6.481740
923.000000 6.466902
924.000000 8.564765
925.000000 11.842710
926.000000 9.704189
927.000000 7.545967
928.000000 5.368014
929.000000 7.504104
930.000000 3.235491
931.000000 10.727901
932.000000 10.779401
933.000000 5.380261
934.000000 8.621395
935.000000 5.361973
936.000000 7.542383
937.000000 10.831804
938.000000 3.234644
939.000000 10.722822
940.000000 7.519648
941.000000 11.794402
942.000000 6.455972
943.000000 6.441835
944.000000 8.608276
945.000000 5.338418
946.000000 8.554372
947.000000 11.935919
948.000000 2.161290
949.000000 8.599540
950.000000 6.470015
951.000000 3.244832
952.000000 11.795685
953.000000 8.615484
954.000000 8.624641
955.000000 6.427862
956.000000 9.722068
957.000000 10.804218
958.000000 9.744107
959.000000 6.454103
960.000000 7.535626
961.000000 9.646875
962.000000 7.490095
963.000000 2.159751
964.000000 8.595306
965.000000 7.565539
966.000000 8.563854
967.000000 11.855732
968.000000 9.725110
969.000000 4.298199
970.000000 9.646818
971.000000 4.272439
972.000000 8.583384
973.000000 5.400151
974.000000 5.352619
975.000000 6.460919
976.000000 12.896706
977.000000 4.305904
978.000000 4.295006
979.000000 9.695650
980.000000 10.735201
981.000000 9.712416
982.000000 7.539408
983.000000 8.585739
984.000000 5.370450
985.000000 6.481304
986.000000 11.877944
987.000000 3.221330
988.000000 9.676152
989.000000 8.609885
990.000000 10.793393
991.000000 11.879380
992.000000 10.726576
993.000000 4.313391
994.000000 7.566249
995.000000 9.640217
996.000000 11.822486
997.000000 9.705748
998.000000 10.699817
999.000000 10.728675
1000.000000 12.944731
1001.000000 12.856031
1002.000000 8.617480
1003.000000 12.877545
1004.000000 10.764429
1005.000000 12.865966
1006.000000 17.201799
1007.000000 24.884779
1008.000000 22.573978
1009.000000 22.594512
1010.000000 31.356016
1011.000000 35.561433
1012.000000 26.847776
1013.000000 21.513617
1014.000000 28.117834
1015.000000 34.370205
1016.000000 32.228770
1017.000000 20.541091
1018.000000 22.728554
1019.000000 27.907378
1020.000000 21.534254
1021.000000 20.523023
1022.000000 30.362789
1023.000000 29.162364
1024.000000 26.939014
1025.000000 28.138840
1026.000000 13.963541
1027.000000 12.934713
1028.000000 19.539377
1029.000000 14.009962
1030.000000 17.220045
1031.000000 14.026620
1032.000000 12.982567
1033.000000 15.078884
1034.000000 11.883982
1035.000000 10.828593
1036.000000 9.712694
1037.000000 7.576887
1038.000000 8.627643
1039.000000 15.113203
1040.000000 8.547809
1041.000000 11.932744
1042.000000 7.568552
1043.000000 7.521592
1044.000000 8.647967
1045.000000 16.107092
1046.000000 9.692113
1047.000000 9.780096
1048.000000 6.461673
1049.000000 8.593903
1050.000000 6.480009
1051.000000 12.874582
1052.000000 11.810425
1053.000000 9.707576
1054.000000 6.452144
1055.000000 13.909932
1056.000000 20.555942
1057.000000 17.333971
1058.000000 19.517059
1059.000000 24.766244
1060.000000 25.984823
1061.000000 30.193739
1062.000000 29.068294
1063.000000 27.060820
1064.000000 33.356206
1065.000000 39.774568
1066.000000 24.870666
1067.000000 40.136566
1068.000000 29.147064
1069.000000 26.976042
1070.000000 26.950788
1071.000000 25.718791
1072.000000 20.525703
1073.000000 15.097895
1074.000000 19.423534
1075.000000 20.434098
1076.000000 19.358646
1077.000000 17.100828
1078.000000 28.123343
1079.000000 22.672720
1080.000000 14.096363
1081.000000 22.562514
1082.000000 11.932764
1083.000000 26.824906
1084.000000 17.233545
1085.000000 18.325056
1086.000000 19.380420
1087.000000 17.209199
1088.000000 13.925160
1089.000000 17.285263
1090.000000 12.933305
1091.000000 21.505474
1092.000000 15.045766
1093.000000 17.258269
1094.000000 18.326683
1095.000000 9.749293
1096.000000 16.209238
1097.000000 8.607447
1098.000000 23.764232
1099.000000 11.941029
1100.000000 11.905360
1101.000000 19.377100
1102.000000 16.256822
1103.000000 15.096866
1104.000000 10.748606
1105.000000 12.878648
1106.000000 16.228965
1107.000000 28.057631
1108.000000 8.624807
1109.000000 11.860155
1110.000000 6.464884
1111.000000 8.607509
1112.000000 16.259407
1113.000000 9.731194
1114.000000 15.093464
1115.000000 10.785596
1116.000000 9.676758
1117.000000 11.774655
1118.000000 15.048570
1119.000000 11.811491
1120.000000 11.855093
1121.000000 14.036280
1122.000000 10.735121
1123.000000 11.812125
1124.000000 9.754987
1125.000000 7.601327
1126.000000 14.083963
1127.000000 9.723343
1128.000000 15.239893
1129.000000 14.033602
1130.000000 9.668678
1131.000000 10.843312
1132.000000 12.885919
1133.000000 12.878016
1134.000000 10.899315
1135.000000 9.741081
1136.000000 4.305490
1137.000000 9.753880
1138.000000 16.165352
1139.000000 13.009491
1140.000000 14.099990
1141.000000 8.613077
1142.000000 15.098887
1143.000000 17.175828
1144.000000 7.603902
1145.000000 11.798359
1146.000000 7.550344
1147.000000 16.144505
1148.000000 10.798263
1149.000000 10.735401
1150.000000 19.366624
1151.000000 10.770382
1152.000000 7.558335
1153.000000 15.052959
1154.000000 15.097231
1155.000000 20.541288
1156.000000 17.226988
1157.000000 14.059597
1158.000000 6.504366
1159.000000 11.856891
1160.000000 8.550189
1161.000000 9.772722
1162.000000 7.569904
1163.000000 11.834525
1164.000000 9.732683
1165.000000 7.549758
1166.000000 18.274800
1167.000000 15.063820
1168.000000 10.767605
1169.000000 13.999195
1170.000000 14.022507
1171.000000 9.722050
1172.000000 14.165300
1173.000000 8.623975
1174.000000 6.461274
1175.000000 17.303455
1176.000000 13.983257
1177.000000 11.842321
1178.000000 14.098089
1179.000000 9.684136
1180.000000 12.889041
1181.000000 11.899843
1182.000000 14.080620
1183.000000 8.643089
1184.000000 9.766165
1185.000000 14.107144
1186.000000 14.011566
1187.000000 5.375755
1188.000000 11.851864
1189.000000 4.309976
1190.000000 14.025448
1191.000000 8.622182
1192.000000 13.009733
1193.000000 11.878017
1194.000000 11.856299
1195.000000 16.306512
1196.000000 8.671829
1197.000000 15.148297
1198.000000 15.026604
1199.000000 12.981130
1200.000000 8.626774
1201.000000 12.980901
1202.000000 7.603341
1203.000000 6.490066
1204.000000 10.813424
1205.000000 8.680367
1206.000000 11.869411
1207.000000 9.686342
1208.000000 12.991377
1209.000000 7.554954
1210.000000 14.053792
1211.000000 12.970220
1212.000000 8.642563
1213.000000 11.947607
1214.000000 14.085967
1215.000000 6.482202
1216.000000 9.767368
1217.000000 8.707370
1218.000000 12.978674
1219.000000 5.404642
1220.000000 7.636911
1221.000000 6.514085
1222.000000 9.703961
1223.000000 8.695901
1224.000000 8.669545
1225.000000 11.956576
1226.000000 5.439252
1227.000000 6.548102
1228.000000 10.845435
1229.000000 10.904302
1230.000000 7.558202
1231.000000 5.452894
1232.000000 8.702651
1233.000000 7.612105
1234.000000 9.804444
1235.000000 9.811380
1236.000000 14.126011
1237.000000 12.002903
1238.000000 17.420315
1239.000000 3.275451
1240.000000 15.329648
1241.000000 9.838349
1242.000000 6.521592
1243.000000 7.615473
1244.000000 8.748046
1245.000000 5.445983
1246.000000 12.013860
1247.000000 4.327154
1248.000000 9.790133
1249.000000 4.351580
1250.000000 13.102966
1251.000000 8.749331
1252.000000 6.627484
1253.000000 1.092264
1254.000000 16.319998
1255.000000 10.889071
1256.000000 11.945028
1257.000000 8.773742
1258.000000 5.457987
1259.000000 6.547408
1260.000000 8.757453
1261.000000 8.777850
1262.000000 11.981562
1263.000000 15.226524
1264.000000 5.417784
1265.000000 5.439307
1266.000000 6.518670
1267.000000 9.822056
1268.000000 4.366868
1269.000000 10.939249
1270.000000 11.955054
1271.000000 6.539172
1272.000000 8.691901
1273.000000 8.771864
1274.000000 15.215371
1275.000000 6.537290
1276.000000 5.449552
1277.000000 11.954917
1278.000000 8.724956
1279.000000 9.773820
1280.000000 10.947575
1281.000000 14.067328
1282.000000 9.823640
1283.000000 14.179612
1284.000000 6.547435
1285.000000 9.836648
1286.000000 7.622466
1287.000000 6.570471
1288.000000 6.549140
1289.000000 5.436865
1290.000000 9.855215
1291.000000 8.692342
1292.000000 4.361052
1293.000000 7.650043
1294.000000 5.458025
1295.000000 12.005436
1296.000000 10.934180
1297.000000 8.741112
1298.000000 7.667603
1299.000000 5.422205
