# Left column = Time after Trigger in seconds & Right column = # Counts / Exposure = Flux per cm² s
700.000000 0.000000
701.000000 2.152407
702.000000 3.229889
703.000000 2.149432
704.000000 0.000000
705.000000 3.228329
706.000000 1.078331
707.000000 1.078968
708.000000 1.079671
709.000000 1.081710
710.000000 0.000000
711.000000 0.000000
712.000000 3.231951
713.000000 2.140825
714.000000 2.156646
715.000000 1.078078
716.000000 2.152769
717.000000 0.000000
718.000000 2.147227
719.000000 0.000000
720.000000 3.223470
721.000000 4.294992
722.000000 0.000000
723.000000 0.000000
724.000000 6.458943
725.000000 4.309976
726.000000 3.223588
727.000000 2.155054
728.000000 1.082104
729.000000 2.141645
730.000000 2.146638
731.000000 2.155295
732.000000 5.379612
733.000000 3.246700
734.000000 5.375100
735.000000 6.433319
736.000000 4.322525
737.000000 0.000000
738.000000 5.392573
739.000000 2.147979
740.000000 4.291935
741.000000 5.419485
742.000000 6.434348
743.000000 2.147460
744.000000 6.469113
745.000000 2.153336
746.000000 5.382558
747.000000 2.162255
748.000000 4.274428
749.000000 4.302473
750.000000 2.171014
751.000000 4.308876
752.000000 2.140095
753.000000 5.382954
754.000000 3.221384
755.000000 3.206225
756.000000 5.379518
757.000000 0.000000
758.000000 2.172954
759.000000 7.530104
760.000000 9.652598
761.000000 1.073719
762.000000 6.474830
763.000000 5.394328
764.000000 8.567261
765.000000 4.291105
766.000000 2.158365
767.000000 5.384648
768.000000 6.516077
769.000000 10.781085
770.000000 5.373659
771.000000 1.073829
772.000000 6.470714
773.000000 5.349378
774.000000 3.215354
775.000000 7.537566
776.000000 1.076475
777.000000 6.466991
778.000000 5.377347
779.000000 5.410729
780.000000 10.823761
781.000000 3.221477
782.000000 5.378628
783.000000 2.137293
784.000000 10.696851
785.000000 6.478300
786.000000 7.557040
787.000000 7.508131
788.000000 7.523882
789.000000 6.476635
790.000000 14.947938
791.000000 6.488934
792.000000 9.692016
793.000000 9.651327
794.000000 7.568579
795.000000 6.477204
796.000000 6.491159
797.000000 9.682795
798.000000 11.797747
799.000000 3.223760
800.000000 10.744500
801.000000 9.695227
802.000000 3.232701
803.000000 4.281767
804.000000 6.447476
805.000000 10.751795
806.000000 8.613871
807.000000 6.438825
808.000000 8.623679
809.000000 9.748197
810.000000 8.571724
811.000000 6.420903
812.000000 6.467152
813.000000 7.540317
814.000000 7.543782
815.000000 9.697059
816.000000 5.352285
817.000000 7.500444
818.000000 7.540901
819.000000 8.593969
820.000000 9.591524
821.000000 15.097088
822.000000 10.778206
823.000000 13.944871
824.000000 6.471158
825.000000 7.543560
826.000000 9.706364
827.000000 7.534714
828.000000 3.197583
829.000000 7.532474
830.000000 9.716235
831.000000 8.585804
832.000000 12.879365
833.000000 10.745105
834.000000 16.129003
835.000000 11.858668
836.000000 9.649076
837.000000 6.442668
838.000000 13.918877
839.000000 11.836485
840.000000 13.978753
841.000000 11.797214
842.000000 15.064665
843.000000 2.143344
844.000000 11.823448
845.000000 10.766981
846.000000 5.388023
847.000000 12.845214
848.000000 11.792681
849.000000 7.532234
850.000000 13.975561
851.000000 9.727571
852.000000 8.567860
853.000000 9.629459
854.000000 11.812467
855.000000 21.488991
856.000000 10.733914
857.000000 5.357641
858.000000 10.735510
859.000000 12.857464
860.000000 8.593969
861.000000 10.694169
862.000000 12.794236
863.000000 10.790577
864.000000 10.740864
865.000000 4.287098
866.000000 17.233130
867.000000 9.649202
868.000000 7.487230
869.000000 9.646722
870.000000 9.692475
871.000000 8.622790
872.000000 12.815812
873.000000 11.788066
874.000000 11.857724
875.000000 11.841546
876.000000 9.698733
877.000000 5.428837
878.000000 16.082955
879.000000 11.876176
880.000000 11.738294
881.000000 11.905028
882.000000 14.016788
883.000000 8.590075
884.000000 8.556674
885.000000 8.588802
886.000000 7.544120
887.000000 4.305660
888.000000 9.647017
889.000000 10.737799
890.000000 10.751039
891.000000 8.606107
892.000000 9.621856
893.000000 7.558925
894.000000 16.111978
895.000000 17.247923
896.000000 12.866710
897.000000 8.586004
898.000000 14.977634
899.000000 7.506450
900.000000 2.146893
901.000000 11.763235
902.000000 13.886290
903.000000 9.672806
904.000000 10.689482
905.000000 9.676532
906.000000 8.545575
907.000000 7.545133
908.000000 8.631297
909.000000 11.788915
910.000000 7.533419
911.000000 8.647447
912.000000 10.780169
913.000000 5.393322
914.000000 16.132279
915.000000 9.645417
916.000000 9.690039
917.000000 11.834312
918.000000 11.751934
919.000000 15.082055
920.000000 9.708855
921.000000 10.779578
922.000000 10.766200
923.000000 9.675547
924.000000 10.737807
925.000000 11.781400
926.000000 11.814350
927.000000 10.760562
928.000000 12.839468
929.000000 11.847882
930.000000 11.816106
931.000000 9.706778
932.000000 8.632679
933.000000 7.526750
934.000000 10.766984
935.000000 13.910955
936.000000 9.635983
937.000000 8.608734
938.000000 8.632973
939.000000 10.711694
940.000000 13.947661
941.000000 5.360011
942.000000 9.687980
943.000000 18.338866
944.000000 11.891935
945.000000 9.681238
946.000000 11.919731
947.000000 15.046416
948.000000 7.493096
949.000000 12.861071
950.000000 10.707152
951.000000 8.657345
952.000000 9.675891
953.000000 10.848421
954.000000 11.830657
955.000000 10.756263
956.000000 10.707312
957.000000 10.743651
958.000000 11.872816
959.000000 11.860929
960.000000 10.747105
961.000000 6.466830
962.000000 10.798422
963.000000 12.929158
964.000000 11.786834
965.000000 9.680562
966.000000 10.766612
967.000000 9.682667
968.000000 10.800340
969.000000 16.157831
970.000000 9.759995
971.000000 9.715864
972.000000 8.612995
973.000000 12.882432
974.000000 12.884533
975.000000 9.672522
976.000000 15.038419
977.000000 9.659381
978.000000 12.871750
979.000000 19.355985
980.000000 8.561844
981.000000 17.161435
982.000000 9.704419
983.000000 7.564983
984.000000 8.679971
985.000000 7.504647
986.000000 6.455523
987.000000 17.297343
988.000000 12.949381
989.000000 16.193320
990.000000 13.986534
991.000000 12.919690
992.000000 11.875689
993.000000 8.641163
994.000000 11.806691
995.000000 11.820844
996.000000 7.544330
997.000000 11.842208
998.000000 12.938335
999.000000 10.781948
1000.000000 12.913974
1001.000000 15.258227
1002.000000 8.606018
1003.000000 17.263631
1004.000000 27.911000
1005.000000 23.819060
1006.000000 18.349156
1007.000000 29.198273
1008.000000 22.776078
1009.000000 23.750161
1010.000000 24.695352
1011.000000 31.058034
1012.000000 29.018776
1013.000000 18.386168
1014.000000 24.910778
1015.000000 20.570170
1016.000000 19.312613
1017.000000 19.409178
1018.000000 22.600236
1019.000000 17.319653
1020.000000 16.238738
1021.000000 11.857436
1022.000000 24.797724
1023.000000 23.712126
1024.000000 29.061987
1025.000000 18.311031
1026.000000 16.175339
1027.000000 15.069712
1028.000000 13.985002
1029.000000 17.210194
1030.000000 15.161299
1031.000000 8.646208
1032.000000 14.077790
1033.000000 11.819670
1034.000000 16.098389
1035.000000 18.430710
1036.000000 16.105199
1037.000000 21.517345
1038.000000 13.981511
1039.000000 17.226920
1040.000000 22.547500
1041.000000 11.888753
1042.000000 14.008678
1043.000000 8.675772
1044.000000 9.744125
1045.000000 11.833616
1046.000000 11.797412
1047.000000 16.188014
1048.000000 14.005721
1049.000000 8.607329
1050.000000 14.023798
1051.000000 10.754209
1052.000000 16.252626
1053.000000 9.735794
1054.000000 10.807084
1055.000000 11.831503
1056.000000 13.980677
1057.000000 10.789626
1058.000000 17.211163
1059.000000 8.620468
1060.000000 11.834998
1061.000000 10.801670
1062.000000 10.790571
1063.000000 14.001220
1064.000000 18.427020
1065.000000 15.100103
1066.000000 8.592338
1067.000000 9.672755
1068.000000 14.038573
1069.000000 17.284145
1070.000000 10.831611
1071.000000 15.121521
1072.000000 11.811038
1073.000000 14.074064
1074.000000 10.789567
1075.000000 11.851982
1076.000000 6.526857
1077.000000 20.468562
1078.000000 6.498600
1079.000000 6.470723
1080.000000 12.881678
1081.000000 12.992609
1082.000000 10.799059
1083.000000 8.660903
1084.000000 8.636999
1085.000000 9.720266
1086.000000 16.263924
1087.000000 10.812101
1088.000000 14.139348
1089.000000 11.877461
1090.000000 11.925948
1091.000000 12.966487
1092.000000 8.682860
1093.000000 15.208278
1094.000000 15.124348
1095.000000 9.784817
1096.000000 7.564291
1097.000000 7.526206
1098.000000 16.345583
1099.000000 14.103937
1100.000000 6.505985
1101.000000 12.964701
1102.000000 14.149781
1103.000000 12.958027
1104.000000 11.878410
1105.000000 6.436475
1106.000000 10.770015
1107.000000 6.478902
1108.000000 11.844792
1109.000000 11.919736
1110.000000 15.210128
1111.000000 9.752682
1112.000000 7.579370
1113.000000 13.047394
1114.000000 4.339631
1115.000000 10.829889
1116.000000 7.589984
1117.000000 19.491396
1118.000000 11.949788
1119.000000 8.642623
1120.000000 7.585303
1121.000000 9.738922
1122.000000 14.022358
1123.000000 9.743213
1124.000000 10.809551
1125.000000 11.895948
1126.000000 7.556634
1127.000000 10.829530
1128.000000 9.754239
1129.000000 9.757453
1130.000000 14.083063
1131.000000 13.030355
1132.000000 9.762564
1133.000000 11.905265
1134.000000 8.645238
1135.000000 9.697278
1136.000000 12.005844
1137.000000 15.151844
1138.000000 11.938760
1139.000000 10.816970
1140.000000 9.729775
1141.000000 10.944618
1142.000000 9.791129
1143.000000 8.667690
1144.000000 10.837943
1145.000000 8.665818
1146.000000 4.335968
1147.000000 11.856774
1148.000000 9.760467
1149.000000 15.198268
1150.000000 11.957026
1151.000000 11.962754
1152.000000 8.676991
1153.000000 10.915861
1154.000000 8.698722
1155.000000 5.424623
1156.000000 6.473752
1157.000000 14.118796
1158.000000 15.205577
1159.000000 10.800841
1160.000000 8.668563
1161.000000 7.622962
1162.000000 11.944145
1163.000000 14.064603
1164.000000 6.479550
1165.000000 10.823591
1166.000000 7.666922
1167.000000 8.768346
1168.000000 13.025650
1169.000000 7.634185
1170.000000 7.617974
1171.000000 6.494053
1172.000000 11.936096
1173.000000 8.687484
1174.000000 16.269101
1175.000000 14.082621
1176.000000 7.611861
1177.000000 10.857949
1178.000000 11.977427
1179.000000 14.021081
1180.000000 10.893957
1181.000000 18.560213
1182.000000 10.951089
1183.000000 6.494650
1184.000000 8.666544
1185.000000 13.032684
1186.000000 15.233646
1187.000000 8.674154
1188.000000 8.686000
1189.000000 16.366762
1190.000000 8.685335
1191.000000 5.424975
1192.000000 13.161854
1193.000000 10.843615
1194.000000 6.529458
1195.000000 16.317976
1196.000000 15.320423
1197.000000 7.633148
1198.000000 3.262548
1199.000000 12.075631
1200.000000 12.976355
1201.000000 13.052962
1202.000000 7.605168
1203.000000 10.939993
1204.000000 6.545953
1205.000000 6.516954
1206.000000 8.700527
1207.000000 9.735605
1208.000000 13.017527
1209.000000 10.889838
1210.000000 7.641969
1211.000000 10.863433
1212.000000 10.871241
1213.000000 10.906714
1214.000000 15.307820
1215.000000 8.679182
1216.000000 11.865898
1217.000000 8.706978
1218.000000 19.559336
1219.000000 9.830716
1220.000000 11.959881
1221.000000 11.993719
1222.000000 14.184899
1223.000000 9.787257
1224.000000 13.177811
1225.000000 8.696712
1226.000000 16.416397
1227.000000 13.015867
1228.000000 8.726977
1229.000000 10.835454
1230.000000 8.722150
1231.000000 8.661562
1232.000000 11.950630
1233.000000 11.995712
1234.000000 17.501641
1235.000000 12.005902
1236.000000 12.004347
1237.000000 13.083420
1238.000000 9.827044
1239.000000 9.806171
1240.000000 9.862450
1241.000000 8.713517
1242.000000 5.456945
1243.000000 14.152137
1244.000000 16.315796
1245.000000 8.692761
1246.000000 14.127995
1247.000000 8.692711
1248.000000 15.264283
1249.000000 14.119040
1250.000000 10.858007
1251.000000 14.074681
1252.000000 17.487556
1253.000000 9.764466
1254.000000 10.904017
1255.000000 7.620102
1256.000000 20.573989
1257.000000 10.913628
1258.000000 9.793432
1259.000000 8.715859
1260.000000 12.003388
1261.000000 7.589928
1262.000000 8.676639
1263.000000 10.886230
1264.000000 10.872064
1265.000000 8.701175
1266.000000 11.910965
1267.000000 10.880287
1268.000000 11.935213
1269.000000 9.789738
1270.000000 13.064039
1271.000000 10.933927
1272.000000 7.609329
1273.000000 9.774677
1274.000000 9.712442
1275.000000 10.857294
1276.000000 14.176286
1277.000000 19.591787
1278.000000 10.892924
1279.000000 7.577992
1280.000000 8.723309
1281.000000 8.680894
1282.000000 9.769499
1283.000000 9.769953
1284.000000 10.918632
1285.000000 12.020234
1286.000000 11.981189
1287.000000 14.276888
1288.000000 18.539786
1289.000000 12.035144
1290.000000 13.016773
1291.000000 7.683076
1292.000000 15.211645
1293.000000 7.644296
1294.000000 8.662184
1295.000000 9.694847
1296.000000 5.462419
1297.000000 13.137237
1298.000000 12.974768
1299.000000 13.088591
