# Left column = Time after Trigger in seconds & Right column = # Counts / Exposure = Flux per cm² s
700.000000 13.395930
701.000000 12.364981
702.000000 8.987296
703.000000 13.479127
704.000000 12.393131
705.000000 7.873399
706.000000 12.258696
707.000000 12.351305
708.000000 13.460817
709.000000 4.484499
710.000000 15.652263
711.000000 11.221423
712.000000 13.443187
713.000000 11.255568
714.000000 10.088232
715.000000 14.563859
716.000000 11.199621
717.000000 10.028479
718.000000 11.292645
719.000000 9.046398
720.000000 13.555386
721.000000 11.211628
722.000000 8.928177
723.000000 12.397156
724.000000 10.122759
725.000000 10.188315
726.000000 5.564000
727.000000 5.619556
728.000000 7.788661
729.000000 7.919234
730.000000 15.692325
731.000000 8.992510
732.000000 10.125661
733.000000 13.434979
734.000000 4.501468
735.000000 14.606586
736.000000 11.251503
737.000000 12.388646
738.000000 8.956460
739.000000 12.469865
740.000000 14.660699
741.000000 7.868062
742.000000 14.784798
743.000000 15.749131
744.000000 13.559245
745.000000 16.823003
746.000000 5.619994
747.000000 13.588629
748.000000 4.517664
749.000000 11.299526
750.000000 12.193493
751.000000 14.681203
752.000000 15.808077
753.000000 15.835065
754.000000 5.666102
755.000000 15.806521
756.000000 10.209680
757.000000 14.668343
758.000000 11.190213
759.000000 7.912299
760.000000 13.686586
761.000000 10.153769
762.000000 7.942492
763.000000 9.024146
764.000000 7.849587
765.000000 7.960791
766.000000 12.471786
767.000000 7.896857
768.000000 7.872734
769.000000 9.052039
770.000000 13.568564
771.000000 12.405723
772.000000 13.511668
773.000000 9.024179
774.000000 14.657877
775.000000 19.225716
776.000000 6.777649
777.000000 6.702756
778.000000 11.297576
779.000000 10.225762
780.000000 20.399241
781.000000 9.117972
782.000000 15.864024
783.000000 11.293483
784.000000 6.748130
785.000000 7.942441
786.000000 5.660633
787.000000 12.346471
788.000000 9.006915
789.000000 14.762224
790.000000 16.958870
791.000000 10.137156
792.000000 6.834779
793.000000 3.395904
794.000000 15.865096
795.000000 10.074289
796.000000 11.361799
797.000000 12.425665
798.000000 12.382141
799.000000 11.385015
800.000000 11.420886
801.000000 11.282533
802.000000 14.705433
803.000000 10.127690
804.000000 13.583528
805.000000 17.011528
806.000000 15.820062
807.000000 9.108069
808.000000 11.346636
809.000000 11.357268
810.000000 11.330380
811.000000 13.615315
812.000000 8.986437
813.000000 14.770090
814.000000 12.561680
815.000000 9.077652
816.000000 13.530097
817.000000 15.887423
818.000000 7.949693
819.000000 9.076715
820.000000 9.103663
821.000000 10.180936
822.000000 14.627109
823.000000 14.742835
824.000000 9.108463
825.000000 14.629467
826.000000 5.657054
827.000000 9.102995
828.000000 13.642315
829.000000 13.704441
830.000000 10.306317
831.000000 11.355949
832.000000 5.652112
833.000000 9.149355
834.000000 14.795673
835.000000 13.579086
836.000000 6.818547
837.000000 7.911559
838.000000 20.451114
839.000000 11.357758
840.000000 13.571412
841.000000 15.834961
842.000000 7.896902
843.000000 20.434800
844.000000 15.967614
845.000000 10.282135
846.000000 13.684609
847.000000 10.236451
848.000000 9.092871
849.000000 6.879570
850.000000 6.808770
851.000000 11.431071
852.000000 14.812506
853.000000 11.326987
854.000000 16.163156
855.000000 12.553237
856.000000 11.414089
857.000000 6.814477
858.000000 10.184397
859.000000 12.518058
860.000000 7.933640
861.000000 7.942392
862.000000 11.448354
863.000000 12.547702
864.000000 11.430994
865.000000 9.088997
866.000000 7.948679
867.000000 14.936493
868.000000 7.959197
869.000000 11.356108
870.000000 11.395777
871.000000 9.121857
872.000000 17.071668
873.000000 5.738041
874.000000 13.683054
875.000000 11.388417
876.000000 5.664962
877.000000 10.241788
878.000000 6.890711
879.000000 10.323597
880.000000 14.779283
881.000000 14.844237
882.000000 10.266647
883.000000 12.549734
884.000000 11.355504
885.000000 10.249404
886.000000 10.285894
887.000000 12.590190
888.000000 9.182048
889.000000 13.741868
890.000000 14.832667
891.000000 8.031699
892.000000 11.418804
893.000000 6.858180
894.000000 10.230536
895.000000 14.881909
896.000000 5.739770
897.000000 9.099678
898.000000 12.636502
899.000000 15.973196
900.000000 7.965896
901.000000 6.849794
902.000000 12.621614
903.000000 6.863396
904.000000 8.057036
905.000000 6.822081
906.000000 19.469477
907.000000 11.492999
908.000000 10.369455
909.000000 12.493067
910.000000 10.260159
911.000000 10.254176
912.000000 8.036082
913.000000 14.976702
914.000000 11.494141
915.000000 9.159768
916.000000 17.289108
917.000000 9.217395
918.000000 6.865237
919.000000 5.709436
920.000000 6.883588
921.000000 13.842581
922.000000 9.147008
923.000000 8.050543
924.000000 11.522419
925.000000 10.318186
926.000000 9.136640
927.000000 2.294014
928.000000 12.627306
929.000000 3.459944
930.000000 19.442689
931.000000 10.350253
932.000000 17.266505
933.000000 11.489097
934.000000 10.337172
935.000000 6.864013
936.000000 12.614503
937.000000 17.271540
938.000000 15.023081
939.000000 6.904594
940.000000 16.018291
941.000000 20.594721
942.000000 5.731378
943.000000 2.305650
944.000000 18.493226
945.000000 13.927588
946.000000 11.496164
947.000000 13.776842
948.000000 5.725536
949.000000 10.403099
950.000000 7.993011
951.000000 6.935654
952.000000 5.717881
953.000000 14.986176
954.000000 11.538491
955.000000 6.877349
956.000000 12.733023
957.000000 8.074717
958.000000 11.515954
959.000000 8.022962
960.000000 11.456186
961.000000 10.376611
962.000000 4.630015
963.000000 11.463983
964.000000 14.831293
965.000000 9.157920
966.000000 8.073574
967.000000 12.681368
968.000000 8.082811
969.000000 8.151870
970.000000 9.187599
971.000000 11.570329
972.000000 15.138316
973.000000 12.630755
974.000000 16.218611
975.000000 8.043367
976.000000 5.735945
977.000000 15.002397
978.000000 9.190624
979.000000 11.543422
980.000000 9.193334
981.000000 9.286608
982.000000 17.334530
983.000000 13.951915
984.000000 5.731354
985.000000 12.810329
986.000000 8.118766
987.000000 11.505550
988.000000 9.246343
989.000000 5.793057
990.000000 5.775257
991.000000 11.524174
992.000000 9.218031
993.000000 5.784813
994.000000 6.836757
995.000000 10.500138
996.000000 5.777428
997.000000 12.778391
998.000000 8.183590
999.000000 22.983273
1000.000000 13.886732
1001.000000 16.385360
1002.000000 9.221208
1003.000000 19.802130
1004.000000 22.122064
1005.000000 28.128569
1006.000000 11.656657
1007.000000 12.748582
1008.000000 11.557448
1009.000000 9.258600
1010.000000 12.798216
1011.000000 9.229797
1012.000000 10.350391
1013.000000 12.660053
1014.000000 10.292926
1015.000000 6.972622
1016.000000 8.129457
1017.000000 9.229819
1018.000000 4.630288
1019.000000 11.577152
1020.000000 8.147251
1021.000000 16.216669
1022.000000 11.602365
1023.000000 12.663536
1024.000000 6.957072
1025.000000 6.911877
1026.000000 11.550930
1027.000000 10.429115
1028.000000 12.965044
1029.000000 18.704245
1030.000000 16.365588
1031.000000 16.169865
1032.000000 8.043888
1033.000000 10.381110
1034.000000 13.924760
1035.000000 5.781334
1036.000000 5.762083
1037.000000 4.670382
1038.000000 12.791347
1039.000000 6.961987
1040.000000 9.231451
1041.000000 12.540088
1042.000000 18.524042
1043.000000 4.654573
1044.000000 5.817310
1045.000000 8.057876
1046.000000 9.287544
1047.000000 8.165923
1048.000000 4.614178
1049.000000 5.764042
1050.000000 9.415770
1051.000000 16.271792
1052.000000 10.482571
1053.000000 11.569120
1054.000000 2.332437
1055.000000 8.133284
1056.000000 15.234331
1057.000000 11.692301
1058.000000 11.567388
1059.000000 12.790889
1060.000000 9.292975
1061.000000 9.335310
1062.000000 11.796406
1063.000000 9.285298
1064.000000 7.056678
1065.000000 8.154307
1066.000000 11.552271
1067.000000 8.146357
1068.000000 17.439277
1069.000000 13.947343
1070.000000 5.834128
1071.000000 10.512397
1072.000000 9.347238
1073.000000 6.994191
1074.000000 4.661659
1075.000000 4.663472
1076.000000 8.136262
1077.000000 8.138578
1078.000000 4.660023
1079.000000 9.370119
1080.000000 13.820813
1081.000000 8.161742
1082.000000 8.175406
1083.000000 3.517172
1084.000000 9.269839
1085.000000 14.009305
1086.000000 12.887812
1087.000000 5.829511
1088.000000 8.152365
1089.000000 8.194884
1090.000000 6.993084
1091.000000 9.332161
1092.000000 9.333508
1093.000000 10.452766
1094.000000 5.822732
1095.000000 6.968462
1096.000000 5.842121
1097.000000 3.514708
1098.000000 9.368828
1099.000000 8.227007
1100.000000 5.873107
1101.000000 8.234229
1102.000000 3.503108
1103.000000 14.109466
1104.000000 10.461020
1105.000000 4.676025
1106.000000 9.249755
1107.000000 8.114356
1108.000000 5.856910
1109.000000 11.597022
1110.000000 5.845199
1111.000000 7.039570
1112.000000 4.673662
1113.000000 8.152006
1114.000000 10.506534
1115.000000 7.022984
1116.000000 8.198763
1117.000000 7.018602
1118.000000 3.475516
1119.000000 3.530329
1120.000000 4.681706
1121.000000 5.881767
1122.000000 8.281582
1123.000000 9.368653
1124.000000 5.806648
1125.000000 4.670146
1126.000000 8.176367
1127.000000 10.423948
1128.000000 3.516384
1129.000000 5.849576
1130.000000 4.647834
1131.000000 4.649630
1132.000000 4.655995
1133.000000 7.033630
1134.000000 3.522045
1135.000000 6.987740
1136.000000 8.256976
1137.000000 4.691467
1138.000000 10.641277
1139.000000 7.008822
1140.000000 8.150549
1141.000000 9.455395
1142.000000 7.016720
1143.000000 4.606407
1144.000000 3.503637
1145.000000 8.199011
1146.000000 4.694721
1147.000000 6.992119
1148.000000 3.551234
1149.000000 4.663615
1150.000000 12.855118
1151.000000 4.684842
1152.000000 5.821674
1153.000000 3.513027
1154.000000 8.207918
1155.000000 7.001540
1156.000000 4.676692
1157.000000 3.514005
1158.000000 11.682246
1159.000000 4.732853
1160.000000 2.332902
1161.000000 7.097525
1162.000000 4.651260
1163.000000 5.831597
1164.000000 4.667838
1165.000000 3.479478
1166.000000 3.515817
1167.000000 7.062003
1168.000000 5.863605
1169.000000 2.352638
1170.000000 5.887734
1171.000000 7.104636
1172.000000 1.162135
1173.000000 7.001108
1174.000000 5.820461
1175.000000 4.639313
1176.000000 10.548777
1177.000000 3.513305
1178.000000 7.025631
1179.000000 4.696962
1180.000000 1.172200
1181.000000 4.699658
1182.000000 5.862881
1183.000000 9.418951
1184.000000 5.863404
1185.000000 3.532047
1186.000000 2.349289
1187.000000 4.674982
1188.000000 3.539586
1189.000000 9.369143
1190.000000 2.320984
1191.000000 4.666706
1192.000000 4.635782
1193.000000 2.342145
1194.000000 8.234397
1195.000000 11.687775
1196.000000 8.246251
1197.000000 2.369399
1198.000000 0.000000
1199.000000 5.852102
1200.000000 3.514696
1201.000000 4.663756
1202.000000 4.657666
1203.000000 1.173648
1204.000000 4.679499
1205.000000 5.863145
1206.000000 8.177730
1207.000000 3.538508
1208.000000 2.327196
1209.000000 4.724605
1210.000000 4.703402
1211.000000 4.649745
1212.000000 5.835939
1213.000000 8.190387
1214.000000 4.698777
1215.000000 4.700813
1216.000000 4.697913
1217.000000 6.966682
1218.000000 5.884607
1219.000000 7.014848
1220.000000 0.000000
1221.000000 7.014104
1222.000000 1.173949
1223.000000 5.869227
1224.000000 4.716394
1225.000000 4.697388
1226.000000 3.575887
1227.000000 1.171671
1228.000000 5.891774
1229.000000 2.367999
1230.000000 4.679444
1231.000000 4.748157
1232.000000 3.500298
1233.000000 8.179430
1234.000000 7.033180
1235.000000 3.528636
1236.000000 2.350861
1237.000000 3.486889
1238.000000 4.691040
1239.000000 3.540045
1240.000000 4.696075
1241.000000 6.967311
1242.000000 1.176872
1243.000000 2.319761
1244.000000 1.190341
1245.000000 3.505276
1246.000000 4.671302
1247.000000 3.529178
1248.000000 3.489358
1249.000000 8.369753
1250.000000 1.165972
1251.000000 1.182974
1252.000000 0.000000
1253.000000 0.000000
1254.000000 3.528663
1255.000000 3.523547
1256.000000 2.341527
1257.000000 0.000000
1258.000000 0.000000
1259.000000 5.859772
1260.000000 2.345245
1261.000000 3.537376
1262.000000 0.000000
1263.000000 1.172293
1264.000000 2.366696
1265.000000 7.004081
1266.000000 3.527606
1267.000000 4.688663
1268.000000 3.520874
1269.000000 4.653331
1270.000000 1.181291
1271.000000 2.341081
1272.000000 1.166710
1273.000000 5.881128
1274.000000 0.000000
1275.000000 3.499408
1276.000000 4.710294
1277.000000 2.330696
1278.000000 1.179639
1279.000000 1.179457
1280.000000 4.693711
1281.000000 1.182629
1282.000000 3.537598
1283.000000 5.912833
1284.000000 0.000000
1285.000000 3.508195
1286.000000 1.176301
1287.000000 3.487808
1288.000000 3.498982
1289.000000 3.508239
1290.000000 2.365565
1291.000000 5.866735
1292.000000 2.319720
1293.000000 2.341490
1294.000000 2.361704
1295.000000 1.169653
1296.000000 2.335027
1297.000000 1.189123
1298.000000 3.508963
1299.000000 2.348561
